Jaz Data File
++++++++++++++++++++++++++++++++++++
Date: Sun Sep 29 07:28:47 2024
User: jaz
Dark Spectrum Present: Yes
Reference Spectrum Present: Yes
Processed Spectrum Present: Yes
Spectrometers: JAZA3692
Integration Time (usec): 40000 (JAZA3692)
Spectra Averaged: 1 (JAZA3692)
Boxcar Smoothing: 0 (JAZA3692)
Correct for Electrical Dark: No (JAZA3692)
Strobe/Lamp Enabled: Yes (JAZA3692)
Correct for Detector Non-linearity: No (JAZA3692)
Correct for Stray Light: No (JAZA3692)
Number of Pixels in Processed Spectrum: 2048
>>>>>Begin Processed Spectral Data<<<<<
W	D	R	S	P
190.244385	0.000000	0.000000	0.000000	0.000000
190.627136	0.000000	0.000000	0.000000	0.000000
191.009842	1105.903076	1067.219238	1153.689087	-123.529655
191.392532	1112.729614	1064.943726	1042.188477	147.619186
191.775177	1137.760376	1119.556274	1083.147949	300.000671
192.157791	1144.586914	1085.423462	1062.668213	138.461670
192.540390	1196.923950	1151.413574	1121.831787	165.000092
192.922943	1178.719727	1074.045776	1140.035889	36.956509
193.305481	1183.270874	1162.791138	1167.342163	77.777908
193.687958	1105.903076	1190.097412	1101.352051	-5.405382
194.070419	1112.729614	1087.698975	1130.933838	-72.727760
194.452866	1221.954712	1178.719727	1119.556274	236.841614
194.835251	1187.821899	1249.260864	1153.689087	-55.555645
195.217621	1199.199463	1210.577026	1094.525513	-920.003235
195.599960	1142.311401	1135.484863	1087.698975	800.001770
195.982254	1078.596802	1137.760376	1194.648438	196.153870
196.364517	1124.107300	1146.862427	1144.586914	90.000000
196.746750	1167.342163	1128.658325	1137.760376	76.470665
197.128952	1178.719727	1169.617676	1099.076538	875.002686
197.511139	1167.342163	1233.332275	1026.259888	-213.793045
197.893280	1165.066650	1092.250000	1128.658325	50.000000
198.275391	1087.698975	1187.821899	1053.566162	-34.090908
198.657471	1119.556274	1206.026001	1151.413574	36.842144
199.039520	1130.933838	1256.087524	1165.066650	27.272718
199.421539	1171.893188	1215.128052	1146.862427	-57.894855
199.803513	1185.546387	1110.454102	1203.750488	-24.242306
200.185471	1099.076538	1144.586914	1115.005249	35.000175
200.567383	1208.301514	1162.791138	1119.556274	195.000015
200.949265	1167.342163	1221.954712	1124.107300	-79.166534
201.331131	1124.107300	1137.760376	1121.831787	-16.666666
201.712967	1140.035889	1101.352051	1155.964600	-41.176655
202.094742	1133.209351	1180.995239	1146.862427	28.571356
202.476517	1083.147949	1199.199463	1112.729614	25.490116
202.858231	1128.658325	1153.689087	1083.147949	-181.817780
203.239944	1103.627563	1155.964600	1089.974487	-26.086834
203.621582	1121.831787	1130.933838	1142.311401	225.000000
204.003235	1137.760376	1112.729614	1142.311401	-18.181730
204.384827	1144.586914	1185.546387	1169.617676	61.111046
204.766388	1108.178589	1215.128052	1135.484863	25.531942
205.147934	1078.596802	1153.689087	1146.862427	90.908974
205.529449	1146.862427	1133.209351	1101.352051	333.334229
205.910904	1119.556274	1206.026001	1115.005249	-5.263143
206.292343	1115.005249	1092.250000	1162.791138	-209.999405
206.673767	1140.035889	1158.240112	1083.147949	-312.498566
207.055115	1233.332275	1094.525513	1078.596802	111.475456
207.436462	1076.321289	1174.168701	1124.107300	48.837276
207.817780	1151.413574	1096.801025	1105.903076	83.333405
208.199051	1126.382813	1187.821899	1115.005249	-18.518444
208.580307	1044.463989	1108.178589	1064.943726	32.142925
208.961517	1092.250000	1126.382813	1060.392700	-93.333359
209.342712	1069.494751	1121.831787	1096.801025	52.173904
209.723846	1092.250000	1149.138062	1285.669312	339.999817
210.104965	1187.821899	1140.035889	1071.770264	242.856918
210.486069	1128.658325	1190.097412	1178.719727	81.481354
210.867111	1078.596802	1128.658325	1146.862427	136.363464
211.248123	1176.444214	1130.933838	1176.444214	-0.000000
211.629120	1130.933838	1169.617676	1096.801025	-88.235329
212.010071	1089.974487	1142.311401	1158.240112	130.434952
212.390991	1126.382813	1128.658325	1115.005249	-500.000000
212.771881	1187.821899	1128.658325	1121.831787	111.538414
213.152756	1160.515625	1171.893188	1158.240112	-20.000000
213.533569	1115.005249	1146.862427	1140.035889	78.571426
213.914368	1124.107300	1196.923950	1026.259888	-134.375046
214.295135	1199.199463	1201.474976	1117.280762	-3600.010742
214.675858	1140.035889	1112.729614	1155.964600	-58.333519
215.056549	1130.933838	1101.352051	1110.454102	69.230896
215.437225	1153.689087	1130.933838	1144.586914	40.000320
215.817841	1155.964600	1196.923950	1108.178589	-116.666916
216.198441	1115.005249	1176.444214	1064.943726	-81.481720
216.579025	1140.035889	1160.515625	1083.147949	-277.776703
216.959549	1128.658325	1233.332275	1103.627563	-23.913076
217.340057	1067.219238	1144.586914	1115.005249	61.764828
217.720535	1165.066650	1160.515625	1094.525513	1550.005371
218.100967	1153.689087	1160.515625	1080.872437	-1066.670288
218.481369	1151.413574	1128.658325	1119.556274	139.999786
218.861740	1119.556274	1117.280762	1110.454102	400.005371
219.242065	1119.556274	1146.862427	1146.862427	100.000000
219.622391	1153.689087	1115.005249	1140.035889	35.294323
220.002670	1083.147949	1142.311401	1142.311401	100.000000
220.382919	1146.862427	1130.933838	1078.596802	428.572968
220.763123	1128.658325	1162.791138	1162.791138	100.000000
221.143295	1128.658325	1190.097412	1144.586914	25.925823
221.523453	1169.617676	1180.995239	1137.760376	-280.001068
221.903549	1121.831787	1194.648438	1096.801025	-34.375053
222.283630	1142.311401	1212.852539	1112.729614	-41.935513
222.663696	1160.515625	1126.382813	1110.454102	146.666855
223.043701	1115.005249	1196.923950	1128.658325	16.666616
223.423676	1058.117188	1142.311401	1119.556274	72.973053
223.803635	1140.035889	1149.138062	1101.352051	-424.995636
224.183548	1080.872437	1192.372925	1124.107300	38.775494
224.563431	1033.086426	1192.372925	1137.760376	65.714264
224.943283	1115.005249	1174.168701	1169.617676	92.307709
225.323105	1110.454102	1144.586914	1153.689087	126.666931
225.702881	1133.209351	1199.199463	1144.586914	17.241316
226.082642	1085.423462	1149.138062	1074.045776	-17.857265
226.462357	1146.862427	1244.709839	1099.076538	-48.837151
226.842041	1087.698975	1165.066650	1071.770264	-20.588327
227.221695	1124.107300	1178.719727	1199.199463	137.500137
227.601318	1137.760376	1171.893188	1158.240112	60.000145
227.980911	1135.484863	1171.893188	1128.658325	-18.749937
228.360474	1058.117188	1206.026001	1155.964600	66.153877
228.739990	1171.893188	1290.220337	1167.342163	-3.846138
229.119476	1105.903076	1231.056763	1196.923950	72.727280
229.498932	1074.045776	1237.883301	1149.138062	45.833385
229.878372	1124.107300	1324.353149	1196.923950	36.363625
230.257736	1167.342163	1454.057739	1212.852539	15.873004
230.637115	1126.382813	1383.516602	1292.495850	64.601791
231.016449	1067.219238	1367.588013	1133.209351	21.969698
231.395737	1155.964600	1381.241089	1194.648438	17.171715
231.774994	1144.586914	1306.148926	1146.862427	1.408445
232.154221	1128.658325	1253.812012	1140.035889	9.090874
232.533417	1087.698975	1292.495850	1176.444214	43.333298
232.912582	1071.770264	1292.495850	1208.301514	61.855652
233.291702	1117.280762	1278.842651	1146.862427	18.309803
233.670792	1149.138062	1272.016113	1190.097412	33.333332
234.049866	1151.413574	1328.904175	1167.342163	8.974328
234.428894	1117.280762	1310.699951	1158.240112	21.176466
234.807892	1155.964600	1315.250977	1178.719727	14.285670
235.186874	1178.719727	1256.087524	1151.413574	-35.293949
235.565781	1128.658325	1269.740601	1194.648438	46.774204
235.944687	1087.698975	1328.904175	1194.648438	44.339619
236.323547	1133.209351	1317.526489	1169.617676	19.753088
236.702377	1110.454102	1272.016113	1117.280762	4.225412
237.081177	1115.005249	1278.842651	1158.240112	26.388885
237.459946	1130.933838	1297.046875	1185.546387	32.876740
237.838669	1167.342163	1340.281738	1153.689087	-7.894709
238.217361	1130.933838	1353.934937	1083.147949	-21.428545
238.596039	1110.454102	1381.241089	1142.311401	11.764709
238.974670	1087.698975	1326.628662	1160.515625	30.476183
239.353271	1030.810913	1406.271851	1130.933838	26.666668
239.731842	1115.005249	1381.241089	1103.627563	-4.273536
240.110367	1146.862427	1401.720825	1140.035889	-2.678561
240.488876	1140.035889	1322.077637	1187.821899	26.250029
240.867340	1089.974487	1399.445313	1203.750488	36.764694
241.245789	1151.413574	1392.618774	1158.240112	2.830179
241.624176	1124.107300	1460.884399	1253.812012	38.513519
242.002548	1130.933838	1526.874512	1206.026001	18.965509
242.380890	1169.617676	1479.088501	1251.536499	26.470613
242.759186	1128.658325	1633.823975	1233.332275	20.720718
243.137451	1144.586914	1692.987427	1299.322388	28.215778
243.515686	1146.862427	1802.212524	1267.465088	18.402784
243.893890	1142.311401	1745.324463	1253.812012	18.490580
244.272049	1055.841675	1875.029175	1401.720825	42.222221
244.650192	1140.035889	1761.253052	1219.679199	12.820526
245.028290	1135.484863	1672.507813	1244.709839	20.338978
245.406357	1135.484863	1663.405762	1221.954712	16.379318
245.784393	1144.586914	1617.895264	1128.658325	-3.365372
246.162384	1149.138062	1617.895264	1217.403687	14.563109
246.540359	1140.035889	1647.477051	1219.679199	15.695083
246.918289	1128.658325	1704.365112	1317.526489	32.806313
247.296204	1146.862427	1843.171875	1260.638550	16.339880
247.674057	1201.474976	2100.305664	1390.343262	21.012665
248.051895	1162.791138	2296.000488	1499.568237	29.718878
248.429703	1146.862427	2355.164063	1442.680176	24.482111
248.807465	1155.964600	2434.807373	1426.751587	21.174377
249.185196	1124.107300	2189.051025	1406.271851	26.495724
249.562897	1096.801025	2091.203613	1319.802124	22.425636
249.940567	1110.454102	1945.570313	1338.006226	27.247959
250.318192	1155.964600	1904.610962	1310.699951	20.668684
250.695801	1167.342163	1831.794189	1217.403687	7.534257
251.073349	1174.168701	1733.946899	1253.812012	14.227655
251.450882	1135.484863	1736.222412	1185.546387	8.333344
251.828400	1133.209351	1779.457275	1262.914063	20.070427
252.205872	1115.005249	1758.977539	1208.301514	14.487621
252.583313	1130.933838	1752.151001	1262.914063	21.245424
252.960693	1112.729614	1813.590088	1233.332275	17.207798
253.338074	1071.770264	1909.161987	1180.995239	13.043474
253.715408	1142.311401	1906.886475	1262.914063	15.773815
254.092682	1099.076538	1868.202637	1228.781250	16.863907
254.469955	1087.698975	1749.875488	1155.964600	10.309279
254.847198	1121.831787	1683.885376	1244.709839	21.862337
255.224365	1149.138062	1677.058838	1217.403687	12.931036
255.601563	1115.005249	1738.497925	1190.097412	12.043793
255.978683	1089.974487	1747.599976	1233.332275	21.799305
256.355743	1115.005249	1720.293701	1199.199463	13.909767
256.732819	1171.893188	1720.293701	1203.750488	5.809130
257.109894	1133.209351	1631.548462	1294.771362	32.420094
257.486877	1183.270874	1708.916138	1221.954712	7.359305
257.863831	1142.311401	1731.671387	1249.260864	18.146713
258.240753	1135.484863	1870.478149	1301.597900	22.600620
258.617645	1162.791138	1818.141113	1240.158813	11.805551
258.994507	1060.392700	1970.601074	1294.771362	25.750000
259.371307	1078.596802	2016.111450	1303.873413	24.029129
259.748108	1096.801025	2182.224365	1335.730713	22.012581
260.124878	1121.831787	2361.990479	1319.802124	15.963306
260.501617	1094.525513	2630.501953	1447.231201	22.962961
260.878296	1103.627563	2949.074951	1467.710938	19.728733
261.254944	1115.005249	3015.064941	1442.680176	17.245506
261.631561	1099.076538	3010.513916	1535.976563	22.857145
262.008179	1119.556274	2755.655762	1451.782227	20.305975
262.384735	1096.801025	2416.603027	1454.057739	27.068962
262.761261	1135.484863	2086.652588	1367.588013	24.401917
263.137695	1060.392700	2170.846924	1342.557251	25.409832
263.514191	1108.178589	2093.479248	1276.567139	17.090067
263.890594	1110.454102	2152.642578	1303.873413	18.558956
264.267029	1108.178589	2002.458252	1269.740601	18.066162
264.643341	1067.219238	2016.111450	1292.495850	23.741013
265.019653	1094.525513	2116.234375	1310.699951	21.158125
265.395935	1108.178589	2066.172852	1267.465088	16.627083
265.772217	1144.586914	1966.049927	1322.077637	21.606661
266.148407	1128.658325	1993.356201	1297.046875	19.473686
266.524597	1137.760376	2070.723877	1287.944824	16.097570
266.900726	1119.556274	2027.489014	1338.006226	24.060146
267.276855	1151.413574	2243.663574	1319.802124	15.416667
267.652924	1085.423462	2209.530762	1344.832764	23.076916
268.028992	1105.903076	2327.857666	1244.709839	11.359405
268.404999	1183.270874	2305.102539	1333.455200	13.387421
268.781006	1137.760376	2389.296875	1376.690063	19.090908
269.156921	1062.668213	2296.000488	1297.046875	19.003691
269.532837	1171.893188	2346.062012	1381.241089	17.829454
269.908661	1165.066650	2296.000488	1310.699951	12.877261
270.284546	1112.729614	2250.489990	1367.588013	22.400007
270.660339	1076.321289	2248.214600	1333.455200	21.941751
271.036133	1185.546387	2282.347412	1363.036987	16.182571
271.411835	1101.352051	2473.491211	1347.108276	17.910444
271.787537	1137.760376	2493.970703	1390.343262	18.624168
272.163239	1151.413574	2703.318604	1449.506714	19.208208
272.538849	1105.903076	2873.982666	1515.496826	23.166025
272.914459	1119.556274	2960.452637	1576.935913	24.845486
273.290070	1165.066650	2855.778564	1488.190552	19.111706
273.665588	1080.872437	2673.737061	1467.710938	24.285711
274.041046	1135.484863	2707.869873	1472.261963	21.418234
274.416565	1180.995239	2664.634766	1440.404663	17.484667
274.791962	1117.280762	2637.328613	1476.812988	23.652691
275.167389	1055.841675	2553.134277	1328.904175	18.237083
275.542755	1121.831787	2450.735840	1347.108276	16.952051
275.918060	1033.086426	2455.286865	1413.098389	26.720001
276.293365	1117.280762	2514.450439	1444.955688	23.452765
276.668640	1124.107300	2523.552490	1415.373901	20.813005
277.043854	1060.392700	2614.573486	1510.945801	28.989748
277.419037	1083.147949	2546.307861	1435.853638	24.105751
277.794189	1119.556274	2557.685303	1474.537476	24.683544
278.169312	1126.382813	2548.583252	1472.261963	24.320000
278.544373	1117.280762	2607.746826	1497.292725	25.496183
278.919464	1135.484863	2580.440674	1460.884399	22.519688
279.294464	1103.627563	2559.960938	1474.537476	25.468750
279.669464	1171.893188	2573.614014	1454.057739	20.129868
280.044403	1165.066650	2630.501953	1447.231201	19.254658
280.419312	1206.026001	2650.981689	1547.354126	23.622047
280.794189	1140.035889	2594.093750	1522.323364	26.291077
281.169037	1121.831787	2728.349365	1508.670288	24.079319
281.543854	1192.372925	2710.145264	1508.670288	20.839579
281.918671	1144.586914	2769.308838	1535.976563	24.089640
282.293365	1121.831787	2908.115479	1549.629639	23.949043
282.668091	1096.801025	3165.249512	1565.558350	22.662268
283.042786	1089.974487	3099.259277	1556.456177	23.216305
283.417419	1094.525513	3281.301025	1604.242188	23.309055
283.792053	1146.862427	3197.106689	1638.375000	23.973368
284.166595	1130.933838	2990.034424	1599.691162	25.214199
284.541138	1121.831787	3035.544678	1522.323364	20.927464
284.915619	1080.872437	2910.391113	1561.007324	26.243782
285.290100	1121.831787	3008.238525	1563.282837	23.401690
285.664520	1165.066650	3094.708252	1615.619751	23.349056
286.038940	1119.556274	3081.055176	1608.793213	24.941994
286.413300	1105.903076	3215.310791	1574.660400	22.222225
286.787628	1153.689087	3281.301025	1583.762451	20.213902
287.161896	1160.515625	3399.628174	1697.538574	23.983740
287.536194	1130.933838	3390.525879	1711.191650	25.679760
287.910400	1128.658325	3388.250488	1722.569214	26.283985
288.284607	1003.504700	3351.842041	1615.619751	26.065889
288.658752	1155.964600	3060.575439	1631.548462	24.970133
289.032867	1121.831787	3005.962891	1558.731689	23.188402
289.406921	1121.831787	3083.330566	1681.609863	28.538282
289.781006	1124.107300	3160.698486	1533.701050	20.111731
290.154999	1146.862427	3194.831299	1615.619751	22.888889
290.529022	1133.209351	3281.301025	1642.926025	23.728813
290.902954	1053.566162	3404.179199	1706.640625	27.783155
291.276825	1103.627563	3479.271240	1679.334351	24.233719
291.650757	1069.494751	3458.791504	1747.599976	28.380953
292.024597	1094.525513	3392.801514	1670.232300	25.049507
292.398407	1085.423462	3401.903564	1740.773438	28.290768
292.772156	1178.719727	3345.015625	1713.467163	24.684875
293.145905	1096.801025	3247.168213	1629.272949	24.761908
293.519592	1146.862427	3217.586426	1686.160889	26.043955
293.893280	1130.933838	3285.852051	1699.814087	26.399157
294.266907	1078.596802	3228.964111	1702.089600	28.994713
294.640533	1069.494751	3429.209961	1802.212524	31.051109
295.014069	1083.147949	3429.209961	1713.467163	26.867117
295.387604	1121.831787	3686.343750	1749.875488	24.489794
295.761078	1085.423462	3754.609375	1795.385864	26.598461
296.134552	1128.658325	3677.241699	1761.253052	24.821424
296.507996	1165.066650	3718.200928	1795.385864	24.688055
296.881378	1067.219238	3759.160400	1713.467163	24.006763
297.254730	1080.872437	3988.988037	1740.773438	22.691704
297.628021	1126.382813	4070.906738	1795.385864	22.720245
298.001282	1142.311401	4159.651855	1920.539551	25.791859
298.374573	1121.831787	4282.530273	1995.631714	27.645786
298.747803	1096.801025	4257.499512	1872.753662	24.550037
299.121002	1096.801025	3988.988037	1918.264038	28.402832
299.494141	1124.107300	3729.578613	1765.804199	24.628824
299.867188	1119.556274	3624.904541	1756.702026	25.431425
300.240265	1076.321289	3720.476563	1654.303589	21.858864
300.613312	1174.168701	3681.792725	1699.814087	20.961889
300.986328	1224.230225	3520.230713	1788.559326	24.578789
301.359314	1094.525513	3499.750977	1713.467163	25.733206
301.732239	1194.648438	3367.770752	1724.844727	24.397903
302.105103	1171.893188	3447.414063	1642.926025	20.699999
302.477997	1080.872437	3608.976074	1667.956787	23.222322
302.850830	1149.138062	3593.047363	1740.773438	24.208567
303.223602	1140.035889	3422.383301	1658.854614	22.731804
303.596375	1119.556274	3497.475586	1599.691162	20.191385
303.969116	1101.352051	3251.719238	1708.916138	28.253969
304.341766	1110.454102	3319.984863	1601.966675	22.245111
304.714478	1135.484863	3324.535889	1656.579102	23.804573
305.087067	1051.290649	3224.413086	1770.355225	33.089001
305.459656	1126.382813	3279.025391	1642.926025	23.995773
305.832214	1085.423462	3165.249512	1586.037964	24.070017
306.204681	1174.168701	3190.280273	1606.517700	21.444696
306.577148	1151.413574	3299.505127	1645.201538	22.987288
306.949646	1180.995239	3397.352539	1636.099487	20.533884
307.322021	1126.382813	3228.964111	1642.926025	24.567099
307.694397	1128.658325	3308.607178	1606.517700	21.920670
308.066742	1058.117188	3408.730225	1576.935913	22.071634
308.439026	1092.250000	3370.046387	1677.058838	25.674324
308.811279	1128.658325	3527.057129	1758.977539	26.280832
309.183502	1067.219238	3677.241699	1715.742676	24.847427
309.555695	1112.729614	3654.486328	1645.201538	20.948973
309.927887	1071.770264	3656.761963	1649.752563	22.359156
310.299988	1146.862427	3688.619141	1715.742676	22.381380
310.672058	1146.862427	3788.742188	1690.711914	20.585701
311.044128	1155.964600	3777.364502	1704.365112	20.920139
311.416168	1119.556274	3872.936523	1613.344238	17.933882
311.788147	1115.005249	3781.915527	1615.619751	18.771330
312.160065	1199.199463	3829.701416	1688.436401	18.598616
312.531982	1089.974487	3822.875000	1722.569214	23.147375
312.903870	1130.933838	3659.037354	1706.640625	22.772280
313.275696	1117.280762	3579.394287	1674.783325	22.643251
313.647491	1149.138062	3627.180176	1601.966675	18.273645
314.019318	1119.556274	3554.363525	1631.548462	21.028038
314.391022	1124.107300	3488.373291	1611.068726	20.596727
314.762726	1124.107300	3556.638916	1601.966675	19.644527
315.134369	1126.382813	3684.068115	1665.681274	21.085411
315.505981	1194.648438	3668.139648	1611.068726	16.835325
315.877594	1092.250000	3866.109863	1688.436401	21.493025
316.249146	1096.801025	3740.956299	1683.885376	22.203096
316.620636	1169.617676	3606.700439	1636.099487	19.140991
316.992157	1194.648438	3513.404053	1592.864502	17.173697
317.363586	1121.831787	3411.005615	1640.650513	22.664017
317.735016	1094.525513	3442.863037	1501.843750	17.344963
