Jaz Data File
++++++++++++++++++++++++++++++++++++
Date: Sun Sep 29 07:28:36 2024
User: jaz
Dark Spectrum Present: Yes
Reference Spectrum Present: Yes
Processed Spectrum Present: Yes
Spectrometers: JAZA3692
Integration Time (usec): 40000 (JAZA3692)
Spectra Averaged: 1 (JAZA3692)
Boxcar Smoothing: 0 (JAZA3692)
Correct for Electrical Dark: No (JAZA3692)
Strobe/Lamp Enabled: Yes (JAZA3692)
Correct for Detector Non-linearity: No (JAZA3692)
Correct for Stray Light: No (JAZA3692)
Number of Pixels in Processed Spectrum: 2048
>>>>>Begin Processed Spectral Data<<<<<
W	D	R	S	P
190.244385	0.000000	0.000000	0.000000	0.000000
190.627136	0.000000	0.000000	0.000000	0.000000
191.009842	1105.903076	1067.219238	1062.668213	111.764671
191.392532	1112.729614	1064.943726	1130.933838	-38.095398
191.775177	1137.760376	1119.556274	1142.311401	-25.000000
192.157791	1144.586914	1085.423462	1117.280762	46.153751
192.540390	1196.923950	1151.413574	1130.933838	145.000153
192.922943	1178.719727	1074.045776	1171.893188	6.521716
193.305481	1183.270874	1162.791138	1160.515625	111.111046
193.687958	1105.903076	1190.097412	1117.280762	13.513599
194.070419	1112.729614	1087.698975	1171.893188	-236.364609
194.452866	1221.954712	1178.719727	1199.199463	52.631565
194.835251	1187.821899	1249.260864	1151.413574	-59.259338
195.217621	1199.199463	1210.577026	1053.566162	-1280.004272
195.599960	1142.311401	1135.484863	1126.382813	233.333328
195.982254	1078.596802	1137.760376	1115.005249	61.538620
196.364517	1124.107300	1146.862427	1062.668213	-270.001068
196.746750	1167.342163	1128.658325	1171.893188	-11.764668
197.128952	1178.719727	1169.617676	1160.515625	200.000000
197.511139	1167.342163	1233.332275	1174.168701	10.344790
197.893280	1165.066650	1092.250000	1160.515625	6.249979
198.275391	1087.698975	1187.821899	1196.923950	109.090874
198.657471	1119.556274	1206.026001	1174.168701	63.157856
199.039520	1130.933838	1256.087524	1130.933838	0.000000
199.421539	1171.893188	1215.128052	1108.178589	-147.368576
199.803513	1185.546387	1110.454102	1099.076538	115.151443
200.185471	1099.076538	1144.586914	1119.556274	45.000149
200.567383	1208.301514	1162.791138	1099.076538	240.000168
200.949265	1167.342163	1221.954712	1124.107300	-79.166534
201.331131	1124.107300	1137.760376	1119.556274	-33.333332
201.712967	1140.035889	1101.352051	1142.311401	-5.882334
202.094742	1133.209351	1180.995239	1135.484863	4.761893
202.476517	1083.147949	1199.199463	1126.382813	37.254890
202.858231	1128.658325	1153.689087	1140.035889	45.454323
203.239944	1103.627563	1155.964600	1124.107300	39.130486
203.621582	1121.831787	1130.933838	1076.321289	-500.002686
204.003235	1137.760376	1112.729614	1126.382813	45.454323
204.384827	1144.586914	1185.546387	1108.178589	-88.888657
204.766388	1108.178589	1215.128052	1130.933838	21.276636
205.147934	1078.596802	1153.689087	1074.045776	-6.060576
205.529449	1146.862427	1133.209351	1110.454102	266.667572
205.910904	1119.556274	1206.026001	1085.423462	-39.473713
206.292343	1115.005249	1092.250000	1092.250000	100.000000
206.673767	1140.035889	1158.240112	1187.821899	262.499573
207.055115	1233.332275	1094.525513	994.402588	172.131165
207.436462	1076.321289	1174.168701	1110.454102	34.883717
207.817780	1151.413574	1096.801025	1121.831787	54.166649
208.199051	1126.382813	1187.821899	1174.168701	77.777664
208.580307	1044.463989	1108.178589	1119.556274	117.857269
208.961517	1092.250000	1126.382813	1165.066650	213.333282
209.342712	1069.494751	1121.831787	1060.392700	-17.391224
209.723846	1092.250000	1149.138062	1060.392700	-55.999973
210.104965	1187.821899	1140.035889	1060.392700	266.666321
210.486069	1128.658325	1190.097412	1062.668213	-107.407379
210.867111	1078.596802	1128.658325	1089.974487	22.727406
211.248123	1176.444214	1130.933838	1026.259888	330.000183
211.629120	1130.933838	1169.617676	1078.596802	-135.294327
212.010071	1089.974487	1142.311401	1089.974487	0.000000
212.390991	1126.382813	1128.658325	1149.138062	1000.005371
212.771881	1187.821899	1128.658325	1119.556274	115.384552
213.152756	1160.515625	1171.893188	1130.933838	-260.001068
213.533569	1115.005249	1146.862427	1242.434326	400.001160
213.914368	1124.107300	1196.923950	1126.382813	3.124990
214.295135	1199.199463	1201.474976	1169.617676	-1300.005371
214.675858	1140.035889	1112.729614	1119.556274	74.999664
215.056549	1130.933838	1101.352051	1115.005249	53.845932
215.437225	1153.689087	1130.933838	1155.964600	-9.999947
215.817841	1155.964600	1196.923950	1121.831787	-83.333382
216.198441	1115.005249	1176.444214	1078.596802	-59.259541
216.579025	1140.035889	1160.515625	1110.454102	-144.444183
216.959549	1128.658325	1233.332275	1183.270874	52.173965
217.340057	1067.219238	1144.586914	1183.270874	150.000153
217.720535	1165.066650	1160.515625	1096.801025	1500.005371
218.100967	1153.689087	1160.515625	1128.658325	-366.668457
218.481369	1151.413574	1128.658325	1076.321289	329.999847
218.861740	1119.556274	1117.280762	1144.586914	-1100.000000
219.242065	1119.556274	1146.862427	1078.596802	-150.000900
219.622391	1153.689087	1115.005249	1085.423462	176.470657
220.002670	1083.147949	1142.311401	1103.627563	34.615314
220.382919	1146.862427	1130.933838	1078.596802	428.572968
220.763123	1128.658325	1162.791138	1124.107300	-13.333285
221.143295	1128.658325	1190.097412	1044.463989	-137.037094
221.523453	1169.617676	1180.995239	1103.627563	-580.002136
221.903549	1121.831787	1194.648438	1108.178589	-18.750105
222.283630	1142.311401	1212.852539	1178.719727	51.612896
222.663696	1160.515625	1126.382813	1165.066650	-13.333285
223.043701	1115.005249	1196.923950	1119.556274	5.555539
223.423676	1058.117188	1142.311401	1076.321289	21.621559
223.803635	1140.035889	1149.138062	1099.076538	-449.995300
224.183548	1080.872437	1192.372925	1028.535400	-46.938839
224.563431	1033.086426	1192.372925	1076.321289	27.142830
224.943283	1115.005249	1174.168701	1105.903076	-15.384790
225.323105	1110.454102	1144.586914	1083.147949	-79.999710
225.702881	1133.209351	1199.199463	1037.637451	-144.827606
226.082642	1085.423462	1149.138062	1078.596802	-10.714437
226.462357	1146.862427	1244.709839	1219.679199	74.418701
226.842041	1087.698975	1165.066650	1160.515625	94.117668
227.221695	1124.107300	1178.719727	1178.719727	100.000000
227.601318	1137.760376	1171.893188	1087.698975	-146.666504
227.980911	1135.484863	1171.893188	1171.893188	100.000000
228.360474	1058.117188	1206.026001	1158.240112	67.692329
228.739990	1171.893188	1290.220337	1094.525513	-65.384552
229.119476	1105.903076	1231.056763	1155.964600	40.000038
229.498932	1074.045776	1237.883301	1199.199463	76.388901
229.878372	1124.107300	1324.353149	1144.586914	10.227236
230.257736	1167.342163	1454.057739	1210.577026	15.079356
230.637115	1126.382813	1383.516602	1140.035889	5.309717
231.016449	1067.219238	1367.588013	1221.954712	51.515167
231.395737	1155.964600	1381.241089	1274.291626	52.525246
231.774994	1144.586914	1306.148926	1174.168701	18.309866
232.154221	1128.658325	1253.812012	1178.719727	39.999943
232.533417	1087.698975	1292.495850	1115.005249	13.333345
232.912582	1071.770264	1292.495850	1221.954712	68.041252
233.291702	1117.280762	1278.842651	1080.872437	-22.535219
233.670792	1149.138062	1272.016113	1153.689087	3.703693
234.049866	1151.413574	1328.904175	1140.035889	-6.410303
234.428894	1117.280762	1310.699951	1146.862427	15.294069
234.807892	1155.964600	1315.250977	1162.791138	4.285701
235.186874	1178.719727	1256.087524	1146.862427	-41.176434
235.565781	1128.658325	1269.740601	1178.719727	35.483833
235.944687	1087.698975	1328.904175	1183.270874	39.622654
236.323547	1133.209351	1317.526489	1274.291626	76.543221
236.702377	1110.454102	1272.016113	1171.893188	38.028175
237.081177	1115.005249	1278.842651	1115.005249	0.000000
237.459946	1130.933838	1297.046875	1196.923950	39.726028
237.838669	1167.342163	1340.281738	1215.128052	27.631552
238.217361	1130.933838	1353.934937	1146.862427	7.142830
238.596039	1110.454102	1381.241089	1167.342163	21.008417
238.974670	1087.698975	1326.628662	1087.698975	0.000000
239.353271	1030.810913	1406.271851	1133.209351	27.272728
239.731842	1115.005249	1381.241089	1130.933838	5.982887
240.110367	1146.862427	1401.720825	1146.862427	0.000000
240.488876	1140.035889	1322.077637	1144.586914	2.499990
240.867340	1089.974487	1399.445313	1176.444214	27.941156
241.245789	1151.413574	1392.618774	1115.005249	-15.094337
241.624176	1124.107300	1460.884399	1210.577026	25.675655
242.002548	1130.933838	1526.874512	1206.026001	18.965509
242.380890	1169.617676	1479.088501	1246.985352	24.999990
242.759186	1128.658325	1633.823975	1224.230225	18.918922
243.137451	1144.586914	1692.987427	1215.128052	12.863070
243.515686	1146.862427	1802.212524	1265.189575	18.055563
243.893890	1142.311401	1745.324463	1297.046875	25.660385
244.272049	1055.841675	1875.029175	1294.771362	29.166666
244.650192	1140.035889	1761.253052	1292.495850	24.542135
245.028290	1135.484863	1672.507813	1262.914063	23.728819
245.406357	1135.484863	1663.405762	1258.363037	23.275869
245.784393	1144.586914	1617.895264	1278.842651	28.365385
246.162384	1149.138062	1617.895264	1246.985352	20.873768
246.540359	1140.035889	1647.477051	1260.638550	23.766827
246.918289	1128.658325	1704.365112	1299.322388	29.644268
247.296204	1146.862427	1843.171875	1399.445313	36.274517
247.674057	1201.474976	2100.305664	1394.894287	21.518993
248.051895	1162.791138	2296.000488	1333.455200	15.060242
248.429703	1146.862427	2355.164063	1424.476074	22.975525
248.807465	1155.964600	2434.807373	1322.077637	12.989325
249.185196	1124.107300	2189.051025	1399.445313	25.854700
249.562897	1096.801025	2091.203613	1306.148926	21.052629
249.940567	1110.454102	1945.570313	1347.108276	28.337873
250.318192	1155.964600	1904.610962	1294.771362	18.541033
250.695801	1167.342163	1831.794189	1215.128052	7.191774
251.073349	1174.168701	1733.946899	1349.383789	31.300806
251.450882	1135.484863	1736.222412	1265.189575	21.590912
251.828400	1133.209351	1779.457275	1235.607788	15.845070
252.205872	1115.005249	1758.977539	1283.393677	26.148397
252.583313	1130.933838	1752.151001	1265.189575	21.611723
252.960693	1112.729614	1813.590088	1276.567139	23.376625
253.338074	1071.770264	1909.161987	1251.536499	21.467400
253.715408	1142.311401	1906.886475	1363.036987	28.869053
254.092682	1099.076538	1868.202637	1231.056763	17.159763
254.469955	1087.698975	1749.875488	1192.372925	15.807560
254.847198	1121.831787	1683.885376	1194.648438	12.955464
255.224365	1149.138062	1677.058838	1162.791138	2.586198
255.601563	1115.005249	1738.497925	1165.066650	8.029188
255.978683	1089.974487	1747.599976	1212.852539	18.685110
256.355743	1115.005249	1720.293701	1215.128052	16.541336
256.732819	1171.893188	1720.293701	1206.026001	6.224066
257.109894	1133.209351	1631.548462	1258.363037	25.114161
257.486877	1183.270874	1708.916138	1226.505737	8.225102
257.863831	1142.311401	1731.671387	1340.281738	33.590733
258.240753	1135.484863	1870.478149	1244.709839	14.860677
258.617645	1162.791138	1818.141113	1242.434326	12.152772
258.994507	1060.392700	1970.601074	1287.944824	25.000004
259.371307	1078.596802	2016.111450	1331.179688	26.941753
259.748108	1096.801025	2182.224365	1292.495850	18.029354
260.124878	1121.831787	2361.990479	1349.383789	18.348619
260.501617	1094.525513	2630.501953	1456.333252	23.555553
260.878296	1103.627563	2949.074951	1513.221313	22.194820
261.254944	1115.005249	3015.064941	1522.323364	21.437122
261.631561	1099.076538	3010.513916	1408.547363	16.190477
262.008179	1119.556274	2755.655762	1488.190552	22.531288
262.384735	1096.801025	2416.603027	1331.179688	17.758623
262.761261	1135.484863	2086.652588	1338.006226	21.291866
263.137695	1060.392700	2170.846924	1331.179688	24.385246
263.514191	1108.178589	2093.479248	1335.730713	23.094688
263.890594	1110.454102	2152.642578	1319.802124	20.087347
264.267029	1108.178589	2002.458252	1262.914063	17.302805
264.643341	1067.219238	2016.111450	1335.730713	28.297363
265.019653	1094.525513	2116.234375	1283.393677	18.485518
265.395935	1108.178589	2066.172852	1285.669312	18.527327
265.772217	1144.586914	1966.049927	1353.934937	25.484777
266.148407	1128.658325	1993.356201	1333.455200	23.684212
266.524597	1137.760376	2070.723877	1310.699951	18.536585
266.900726	1119.556274	2027.489014	1394.894287	30.325815
267.276855	1151.413574	2243.663574	1408.547363	23.541660
267.652924	1085.423462	2209.530762	1353.934937	23.886641
268.028992	1105.903076	2327.857666	1369.863525	21.601494
268.404999	1183.270874	2305.102539	1435.853638	22.515211
268.781006	1137.760376	2389.296875	1358.485962	17.636368
269.156921	1062.668213	2296.000488	1376.690063	25.461252
269.532837	1171.893188	2346.062012	1381.241089	17.829454
269.908661	1165.066650	2296.000488	1367.588013	17.907446
270.284546	1112.729614	2250.489990	1301.597900	16.600006
270.660339	1076.321289	2248.214600	1363.036987	24.466024
271.036133	1185.546387	2282.347412	1340.281738	14.107878
271.411835	1101.352051	2473.491211	1369.863525	19.568823
271.787537	1137.760376	2493.970703	1401.720825	19.463091
272.163239	1151.413574	2703.318604	1474.537476	20.821114
272.538849	1105.903076	2873.982666	1465.435425	20.334625
272.914459	1119.556274	2960.452637	1522.323364	21.878857
273.290070	1165.066650	2855.778564	1520.047852	20.995960
273.665588	1080.872437	2673.737061	1438.129150	22.428568
274.041046	1135.484863	2707.869873	1454.057739	20.260489
274.416565	1180.995239	2664.634766	1492.741699	21.012278
274.791962	1117.280762	2637.328613	1347.108276	15.119755
275.167389	1055.841675	2553.134277	1399.445313	22.948330
275.542755	1121.831787	2450.735840	1392.618774	20.376715
275.918060	1033.086426	2455.286865	1344.832764	21.920000
276.293365	1117.280762	2514.450439	1442.680176	23.289900
276.668640	1124.107300	2523.552490	1467.710938	24.552847
277.043854	1060.392700	2614.573486	1442.680176	24.597363
277.419037	1083.147949	2546.307861	1510.945801	29.237942
277.794189	1119.556274	2557.685303	1410.822876	20.253162
278.169312	1126.382813	2548.583252	1447.231201	22.559998
278.544373	1117.280762	2607.746826	1495.017212	25.343512
278.919464	1135.484863	2580.440674	1501.843750	25.354332
279.294464	1103.627563	2559.960938	1488.190552	26.406246
279.669464	1171.893188	2573.614014	1490.466064	22.727270
280.044403	1165.066650	2630.501953	1451.782227	19.565216
280.419312	1206.026001	2650.981689	1447.231201	16.692913
280.794189	1140.035889	2594.093750	1599.691162	31.611897
281.169037	1121.831787	2728.349365	1554.180664	26.912178
281.543854	1192.372925	2710.145264	1567.833862	24.737633
281.918671	1144.586914	2769.308838	1499.568237	21.848743
282.293365	1121.831787	2908.115479	1581.486938	25.732483
282.668091	1096.801025	3165.249512	1631.548462	25.852587
283.042786	1089.974487	3099.259277	1558.731689	23.329556
283.417419	1094.525513	3281.301025	1608.793213	23.517170
283.792053	1146.862427	3197.106689	1617.895264	22.974476
284.166595	1130.933838	2990.034424	1649.752563	27.906975
284.541138	1121.831787	3035.544678	1510.945801	20.332935
284.915619	1080.872437	2910.391113	1515.496826	23.756214
285.290100	1121.831787	3008.238525	1558.731689	23.160429
285.664520	1165.066650	3094.708252	1590.588989	22.051884
286.038940	1119.556274	3081.055176	1658.854614	27.494196
286.413300	1105.903076	3215.310791	1633.823975	25.026974
286.787628	1153.689087	3281.301025	1706.640625	25.989305
287.161896	1160.515625	3399.628174	1665.681274	22.560976
287.536194	1130.933838	3390.525879	1708.916138	25.579056
287.910400	1128.658325	3388.250488	1702.089600	25.377644
288.284607	1003.504700	3351.842041	1624.721802	26.453485
288.658752	1155.964600	3060.575439	1611.068726	23.894861
289.032867	1121.831787	3005.962891	1615.619751	26.207729
289.406921	1121.831787	3083.330566	1638.375000	26.334108
289.781006	1124.107300	3160.698486	1636.099487	25.139664
290.154999	1146.862427	3194.831299	1590.588989	21.666666
290.529022	1133.209351	3281.301025	1686.160889	25.741522
290.902954	1053.566162	3404.179199	1740.773438	29.235237
291.276825	1103.627563	3479.271240	1752.151001	27.298853
291.650757	1069.494751	3458.791504	1756.702026	28.761904
292.024597	1094.525513	3392.801514	1692.987427	26.039602
292.398407	1085.423462	3401.903564	1781.732788	30.058941
292.772156	1178.719727	3345.015625	1727.120239	25.315125
293.145905	1096.801025	3247.168213	1613.344238	24.021164
293.519592	1146.862427	3217.586426	1647.477051	24.175825
293.893280	1130.933838	3285.852051	1679.334351	25.448786
294.266907	1078.596802	3228.964111	1699.814087	28.888893
294.640533	1069.494751	3429.209961	1695.262939	26.518801
295.014069	1083.147949	3429.209961	1781.732788	29.776913
295.387604	1121.831787	3686.343750	1790.834839	26.086954
295.761078	1085.423462	3754.609375	1831.794189	27.962484
296.134552	1128.658325	3677.241699	1820.416626	27.142855
296.507996	1165.066650	3718.200928	1900.059814	28.787878
296.881378	1067.219238	3759.160400	1758.977539	25.697378
297.254730	1080.872437	3988.988037	1915.988525	28.716742
297.628021	1126.382813	4070.906738	1881.855713	25.656878
298.001282	1142.311401	4159.651855	1900.059814	25.113123
298.374573	1121.831787	4282.530273	1852.273926	23.110149
298.747803	1096.801025	4257.499512	1868.202637	24.406048
299.121002	1096.801025	3988.988037	1784.008301	23.760817
299.494141	1124.107300	3729.578613	1749.875488	24.017467
299.867188	1119.556274	3624.904541	1815.865601	27.792917
300.240265	1076.321289	3720.476563	1847.722900	29.173840
300.613312	1174.168701	3681.792725	1731.671387	22.232307
300.986328	1224.230225	3520.230713	1699.814087	20.713579
301.359314	1094.525513	3499.750977	1706.640625	25.449385
301.732239	1194.648438	3367.770752	1661.130127	21.465965
302.105103	1171.893188	3447.414063	1711.191650	23.699999
302.477997	1080.872437	3608.976074	1688.436401	24.032400
302.850830	1149.138062	3593.047363	1713.467163	23.091248
303.223602	1140.035889	3422.383301	1672.507813	23.330011
303.596375	1119.556274	3497.475586	1629.272949	21.435406
303.969116	1101.352051	3251.719238	1663.405762	26.137569
304.341766	1110.454102	3319.984863	1656.579102	24.716787
304.714478	1135.484863	3324.535889	1645.201538	23.284824
305.087067	1051.290649	3224.413086	1647.477051	27.434551
305.459656	1126.382813	3279.025391	1647.477051	24.207188
305.832214	1085.423462	3165.249512	1645.201538	26.914658
306.204681	1174.168701	3190.280273	1656.579102	23.927763
306.577148	1151.413574	3299.505127	1538.252075	18.008474
306.949646	1180.995239	3397.352539	1695.262939	23.203283
307.322021	1126.382813	3228.964111	1601.966675	22.619047
307.694397	1128.658325	3308.607178	1595.140137	21.398752
308.066742	1058.117188	3408.730225	1636.099487	24.588577
308.439026	1092.250000	3370.046387	1665.681274	25.174826
308.811279	1128.658325	3527.057129	1729.395752	25.047436
309.183502	1067.219238	3677.241699	1722.569214	25.108978
309.555695	1112.729614	3654.486328	1804.488037	27.215759
309.927887	1071.770264	3656.761963	1752.151001	26.320423
310.299988	1146.862427	3688.619141	1683.885376	21.128023
310.672058	1146.862427	3788.742188	1781.732788	24.031008
311.044128	1155.964600	3777.364502	1729.395752	21.874996
311.416168	1119.556274	3872.936523	1754.426514	23.057848
311.788147	1115.005249	3781.915527	1656.579102	20.307165
312.160065	1199.199463	3829.701416	1692.987427	18.771626
312.531982	1089.974487	3822.875000	1697.538574	22.231476
312.903870	1130.933838	3659.037354	1763.528564	25.022501
313.275696	1117.280762	3579.394287	1665.681274	22.273567
313.647491	1149.138062	3627.180176	1615.619751	18.824608
314.019318	1119.556274	3554.363525	1613.344238	20.280373
314.391022	1124.107300	3488.373291	1624.721802	21.174202
314.762726	1124.107300	3556.638916	1654.303589	21.796068
315.134369	1126.382813	3684.068115	1686.160889	21.886120
315.505981	1194.648438	3668.139648	1688.436401	19.963198
315.877594	1092.250000	3866.109863	1699.814087	21.903200
316.249146	1096.801025	3740.956299	1677.058838	21.944921
316.620636	1169.617676	3606.700439	1592.864502	17.366945
316.992157	1194.648438	3513.404053	1606.517700	17.762512
317.363586	1121.831787	3411.005615	1638.375000	22.564613
317.735016	1094.525513	3442.863037	1663.405762	24.224810
