Jaz Data File
++++++++++++++++++++++++++++++++++++
Date: Sun Sep 29 07:28:52 2024
User: jaz
Dark Spectrum Present: Yes
Reference Spectrum Present: Yes
Processed Spectrum Present: Yes
Spectrometers: JAZA3692
Integration Time (usec): 40000 (JAZA3692)
Spectra Averaged: 1 (JAZA3692)
Boxcar Smoothing: 0 (JAZA3692)
Correct for Electrical Dark: No (JAZA3692)
Strobe/Lamp Enabled: Yes (JAZA3692)
Correct for Detector Non-linearity: No (JAZA3692)
Correct for Stray Light: No (JAZA3692)
Number of Pixels in Processed Spectrum: 2048
>>>>>Begin Processed Spectral Data<<<<<
W	D	R	S	P
190.244385	0.000000	0.000000	0.000000	0.000000
190.627136	0.000000	0.000000	0.000000	0.000000
191.009842	1105.903076	1067.219238	1083.147949	58.823345
191.392532	1112.729614	1064.943726	1099.076538	28.571356
191.775177	1137.760376	1119.556274	1137.760376	-0.000000
192.157791	1144.586914	1085.423462	1087.698975	96.153854
192.540390	1196.923950	1151.413574	1055.841675	310.000244
192.922943	1178.719727	1074.045776	1117.280762	58.695564
193.305481	1183.270874	1162.791138	1101.352051	399.999390
193.687958	1105.903076	1190.097412	1087.698975	-21.621527
194.070419	1112.729614	1087.698975	1130.933838	-72.727760
194.452866	1221.954712	1178.719727	1108.178589	263.157532
194.835251	1187.821899	1249.260864	1103.627563	-137.037354
195.217621	1199.199463	1210.577026	1128.658325	-620.002136
195.599960	1142.311401	1135.484863	1192.372925	-733.336914
195.982254	1078.596802	1137.760376	1158.240112	134.615448
196.364517	1124.107300	1146.862427	1174.168701	220.000534
196.746750	1167.342163	1128.658325	1192.372925	-64.705994
197.128952	1178.719727	1169.617676	1117.280762	675.001343
197.511139	1167.342163	1233.332275	1169.617676	3.448263
197.893280	1165.066650	1092.250000	1162.791138	3.124990
198.275391	1087.698975	1187.821899	1105.903076	18.181751
198.657471	1119.556274	1206.026001	1167.342163	55.263142
199.039520	1130.933838	1256.087524	1137.760376	5.454524
199.421539	1171.893188	1215.128052	1128.658325	-100.000000
199.803513	1185.546387	1110.454102	1151.413574	45.454487
200.185471	1099.076538	1144.586914	1144.586914	100.000000
200.567383	1208.301514	1162.791138	1158.240112	109.999969
200.949265	1167.342163	1221.954712	1151.413574	-29.166536
201.331131	1124.107300	1137.760376	1176.444214	383.334229
201.712967	1140.035889	1101.352051	1149.138062	-23.529654
202.094742	1133.209351	1180.995239	1085.423462	-100.000000
202.476517	1083.147949	1199.199463	1180.995239	84.313667
202.858231	1128.658325	1153.689087	1103.627563	-100.000000
203.239944	1103.627563	1155.964600	1167.342163	121.739029
203.621582	1121.831787	1130.933838	1119.556274	-25.000000
204.003235	1137.760376	1112.729614	1124.107300	54.545189
204.384827	1144.586914	1185.546387	1092.250000	-127.777313
204.766388	1108.178589	1215.128052	1096.801025	-10.638262
205.147934	1078.596802	1153.689087	1103.627563	33.333332
205.529449	1146.862427	1133.209351	1140.035889	50.000000
205.910904	1119.556274	1206.026001	1137.760376	21.052572
206.292343	1115.005249	1092.250000	1126.382813	-49.999733
206.673767	1140.035889	1158.240112	1135.484863	-24.999832
207.055115	1233.332275	1094.525513	1030.810913	145.901657
207.436462	1076.321289	1174.168701	1121.831787	46.511703
207.817780	1151.413574	1096.801025	1151.413574	-0.000000
208.199051	1126.382813	1187.821899	1076.321289	-81.481552
208.580307	1044.463989	1108.178589	1155.964600	175.000092
208.961517	1092.250000	1126.382813	1167.342163	219.999924
209.342712	1069.494751	1121.831787	1115.005249	86.956581
209.723846	1092.250000	1149.138062	1235.607788	251.999771
210.104965	1187.821899	1140.035889	1105.903076	171.428467
210.486069	1128.658325	1190.097412	1155.964600	44.444466
210.867111	1078.596802	1128.658325	1051.290649	-54.545189
211.248123	1176.444214	1130.933838	1149.138062	59.999840
211.629120	1130.933838	1169.617676	1099.076538	-82.352997
212.010071	1089.974487	1142.311401	1078.596802	-21.739313
212.390991	1126.382813	1128.658325	1126.382813	0.000000
212.771881	1187.821899	1128.658325	1078.596802	184.615448
213.152756	1160.515625	1171.893188	1149.138062	-100.000000
213.533569	1115.005249	1146.862427	1190.097412	235.715057
213.914368	1124.107300	1196.923950	1039.912964	-115.625114
214.295135	1199.199463	1201.474976	1089.974487	-4800.016113
214.675858	1140.035889	1112.729614	1169.617676	-108.333298
215.056549	1130.933838	1101.352051	1112.729614	61.538620
215.437225	1153.689087	1130.933838	1101.352051	229.999832
215.817841	1155.964600	1196.923950	1178.719727	55.555389
216.198441	1115.005249	1176.444214	1119.556274	7.407393
216.579025	1140.035889	1160.515625	1146.862427	33.333134
216.959549	1128.658325	1233.332275	1110.454102	-17.391359
217.340057	1067.219238	1144.586914	1137.760376	91.176498
217.720535	1165.066650	1160.515625	1167.342163	-50.000000
218.100967	1153.689087	1160.515625	1110.454102	-633.336914
218.481369	1151.413574	1128.658325	1146.862427	20.000429
218.861740	1119.556274	1117.280762	1167.342163	-2100.005371
219.242065	1119.556274	1146.862427	1112.729614	-25.000446
219.622391	1153.689087	1115.005249	1108.178589	117.647316
220.002670	1083.147949	1142.311401	1103.627563	34.615314
220.382919	1146.862427	1130.933838	1140.035889	42.857143
220.763123	1128.658325	1162.791138	1135.484863	19.999928
221.143295	1128.658325	1190.097412	1165.066650	59.259224
221.523453	1169.617676	1180.995239	1199.199463	260.001068
221.903549	1121.831787	1194.648438	1124.107300	3.124990
222.283630	1142.311401	1212.852539	1069.494751	-103.225792
222.663696	1160.515625	1126.382813	1117.280762	126.666573
223.043701	1115.005249	1196.923950	1108.178589	-8.333458
223.423676	1058.117188	1142.311401	1144.586914	102.702698
223.803635	1140.035889	1149.138062	1180.995239	449.995300
224.183548	1080.872437	1192.372925	1142.311401	55.101971
224.563431	1033.086426	1192.372925	1058.117188	15.714302
224.943283	1115.005249	1174.168701	1160.515625	76.923126
225.323105	1110.454102	1144.586914	1112.729614	6.666643
225.702881	1133.209351	1199.199463	1060.392700	-110.344788
226.082642	1085.423462	1149.138062	1103.627563	28.571320
226.462357	1146.862427	1244.709839	1089.974487	-58.139442
226.842041	1087.698975	1165.066650	1158.240112	91.176498
227.221695	1124.107300	1178.719727	1151.413574	50.000111
227.601318	1137.760376	1171.893188	1076.321289	-180.000076
227.980911	1135.484863	1171.893188	1130.933838	-12.499958
228.360474	1058.117188	1206.026001	1133.209351	50.769230
228.739990	1171.893188	1290.220337	1080.872437	-76.922966
229.119476	1105.903076	1231.056763	1142.311401	29.090893
229.498932	1074.045776	1237.883301	1219.679199	88.888931
229.878372	1124.107300	1324.353149	1212.852539	44.318142
230.257736	1167.342163	1454.057739	1180.995239	4.761889
230.637115	1126.382813	1383.516602	1246.985352	46.902641
231.016449	1067.219238	1367.588013	1178.719727	37.121197
231.395737	1155.964600	1381.241089	1171.893188	7.070684
231.774994	1144.586914	1306.148926	1155.964600	7.042303
232.154221	1128.658325	1253.812012	1155.964600	21.818193
232.533417	1087.698975	1292.495850	1167.342163	38.888870
232.912582	1071.770264	1292.495850	1183.270874	50.515488
233.291702	1117.280762	1278.842651	1121.831787	2.816893
233.670792	1149.138062	1272.016113	1158.240112	7.407385
234.049866	1151.413574	1328.904175	1126.382813	-14.102585
234.428894	1117.280762	1310.699951	1140.035889	11.764668
234.807892	1155.964600	1315.250977	1201.474976	28.571417
235.186874	1178.719727	1256.087524	1165.066650	-17.646975
235.565781	1128.658325	1269.740601	1140.035889	8.064488
235.944687	1087.698975	1328.904175	1194.648438	44.339619
236.323547	1133.209351	1317.526489	1130.933838	-1.234564
236.702377	1110.454102	1272.016113	1153.689087	26.760612
237.081177	1115.005249	1278.842651	1096.801025	-11.111153
237.459946	1130.933838	1297.046875	1128.658325	-1.369858
237.838669	1167.342163	1340.281738	1206.026001	22.368412
238.217361	1130.933838	1353.934937	1117.280762	-6.122426
238.596039	1110.454102	1381.241089	1176.444214	24.369751
238.974670	1087.698975	1326.628662	1167.342163	33.333317
239.353271	1030.810913	1406.271851	1187.821899	41.818195
239.731842	1115.005249	1381.241089	1153.689087	14.529914
240.110367	1146.862427	1401.720825	1174.168701	10.714293
240.488876	1140.035889	1322.077637	1087.698975	-28.749952
240.867340	1089.974487	1399.445313	1146.862427	18.382328
241.245789	1151.413574	1392.618774	1108.178589	-17.924566
241.624176	1124.107300	1460.884399	1144.586914	6.081059
242.002548	1130.933838	1526.874512	1194.648438	16.091957
242.380890	1169.617676	1479.088501	1237.883301	22.058825
242.759186	1128.658325	1633.823975	1231.056763	20.270269
243.137451	1144.586914	1692.987427	1235.607788	16.597519
243.515686	1146.862427	1802.212524	1244.709839	14.930555
243.893890	1142.311401	1745.324463	1333.455200	31.698120
244.272049	1055.841675	1875.029175	1228.781250	21.111111
244.650192	1140.035889	1761.253052	1217.403687	12.454227
245.028290	1135.484863	1672.507813	1246.985352	20.762705
245.406357	1135.484863	1663.405762	1208.301514	13.793098
245.784393	1144.586914	1617.895264	1221.954712	16.346172
246.162384	1149.138062	1617.895264	1153.689087	0.970870
246.540359	1140.035889	1647.477051	1206.026001	13.004485
246.918289	1128.658325	1704.365112	1326.628662	34.387356
247.296204	1146.862427	1843.171875	1308.424438	23.202616
247.674057	1201.474976	2100.305664	1331.179688	14.430383
248.051895	1162.791138	2296.000488	1392.618774	20.281128
248.429703	1146.862427	2355.164063	1403.996338	21.280605
248.807465	1155.964600	2434.807373	1394.894287	18.683273
249.185196	1124.107300	2189.051025	1403.996338	26.282049
249.562897	1096.801025	2091.203613	1342.557251	24.713957
249.940567	1110.454102	1945.570313	1365.312500	30.517717
250.318192	1155.964600	1904.610962	1299.322388	19.148933
250.695801	1167.342163	1831.794189	1235.607788	10.273973
251.073349	1174.168701	1733.946899	1258.363037	15.040660
251.450882	1135.484863	1736.222412	1210.577026	12.499995
251.828400	1133.209351	1779.457275	1231.056763	15.140847
252.205872	1115.005249	1758.977539	1235.607788	18.727909
252.583313	1130.933838	1752.151001	1281.118164	24.175817
252.960693	1112.729614	1813.590088	1265.189575	21.753254
253.338074	1071.770264	1909.161987	1290.220337	26.086964
253.715408	1142.311401	1906.886475	1210.577026	8.928571
254.092682	1099.076538	1868.202637	1297.046875	25.739647
254.469955	1087.698975	1749.875488	1237.883301	22.680407
254.847198	1121.831787	1683.885376	1231.056763	19.433195
255.224365	1149.138062	1677.058838	1183.270874	6.465518
255.601563	1115.005249	1738.497925	1155.964600	6.569339
255.978683	1089.974487	1747.599976	1297.046875	31.487890
256.355743	1115.005249	1720.293701	1251.536499	22.556395
256.732819	1171.893188	1720.293701	1237.883301	12.033196
257.109894	1133.209351	1631.548462	1192.372925	11.872151
257.486877	1183.270874	1708.916138	1231.056763	9.090900
257.863831	1142.311401	1731.671387	1194.648438	8.880317
258.240753	1135.484863	1870.478149	1274.291626	18.885447
258.617645	1162.791138	1818.141113	1199.199463	5.555554
258.994507	1060.392700	1970.601074	1260.638550	22.000000
259.371307	1078.596802	2016.111450	1324.353149	26.213600
259.748108	1096.801025	2182.224365	1299.322388	18.658283
260.124878	1121.831787	2361.990479	1372.139038	20.183485
260.501617	1094.525513	2630.501953	1410.822876	20.592592
260.878296	1103.627563	2949.074951	1515.496826	22.318125
261.254944	1115.005249	3015.064941	1474.537476	18.922153
261.631561	1099.076538	3010.513916	1410.822876	16.309525
262.008179	1119.556274	2755.655762	1394.894287	16.828928
262.384735	1096.801025	2416.603027	1426.751587	25.000004
262.761261	1135.484863	2086.652588	1338.006226	21.291866
263.137695	1060.392700	2170.846924	1246.985352	16.803272
263.514191	1108.178589	2093.479248	1281.118164	17.551960
263.890594	1110.454102	2152.642578	1315.250977	19.650656
264.267029	1108.178589	2002.458252	1285.669312	19.847340
264.643341	1067.219238	2016.111450	1290.220337	23.501204
265.019653	1094.525513	2116.234375	1260.638550	16.258354
265.395935	1108.178589	2066.172852	1319.802124	22.090271
265.772217	1144.586914	1966.049927	1319.802124	21.329653
266.148407	1128.658325	1993.356201	1322.077637	22.368427
266.524597	1137.760376	2070.723877	1269.740601	14.146344
266.900726	1119.556274	2027.489014	1367.588013	27.318295
267.276855	1151.413574	2243.663574	1351.659302	18.333324
267.652924	1085.423462	2209.530762	1381.241089	26.315783
268.028992	1105.903076	2327.857666	1353.934937	20.297960
268.404999	1183.270874	2305.102539	1376.690063	17.241373
268.781006	1137.760376	2389.296875	1378.965576	19.272726
269.156921	1062.668213	2296.000488	1378.965576	25.645754
269.532837	1171.893188	2346.062012	1312.975464	12.015502
269.908661	1165.066650	2296.000488	1351.659302	16.498989
270.284546	1112.729614	2250.489990	1326.628662	18.800009
270.660339	1076.321289	2248.214600	1388.067749	26.601950
271.036133	1185.546387	2282.347412	1349.383789	14.937751
271.411835	1101.352051	2473.491211	1328.904175	16.583750
271.787537	1137.760376	2493.970703	1399.445313	19.295307
272.163239	1151.413574	2703.318604	1463.159912	20.087978
272.538849	1105.903076	2873.982666	1467.710938	20.463324
272.914459	1119.556274	2960.452637	1429.027100	16.810877
273.290070	1165.066650	2855.778564	1492.741699	19.380892
273.665588	1080.872437	2673.737061	1458.608887	23.714285
274.041046	1135.484863	2707.869873	1394.894287	16.497831
274.416565	1180.995239	2664.634766	1422.200562	16.257677
274.791962	1117.280762	2637.328613	1458.608887	22.455091
275.167389	1055.841675	2553.134277	1413.098389	23.860180
275.542755	1121.831787	2450.735840	1390.343262	20.205482
275.918060	1033.086426	2455.286865	1392.618774	25.280005
276.293365	1117.280762	2514.450439	1381.241089	18.892504
276.668640	1124.107300	2523.552490	1424.476074	21.463419
277.043854	1060.392700	2614.573486	1403.996338	22.108345
277.419037	1083.147949	2546.307861	1479.088501	27.060648
277.794189	1119.556274	2557.685303	1490.466064	25.791134
278.169312	1126.382813	2548.583252	1520.047852	27.679996
278.544373	1117.280762	2607.746826	1426.751587	20.763359
278.919464	1135.484863	2580.440674	1451.782227	21.889761
279.294464	1103.627563	2559.960938	1490.466064	26.562496
279.669464	1171.893188	2573.614014	1490.466064	22.727270
280.044403	1165.066650	2630.501953	1540.527588	25.621120
280.419312	1206.026001	2650.981689	1563.282837	24.724415
280.794189	1140.035889	2594.093750	1469.986450	22.691708
281.169037	1121.831787	2728.349365	1449.506714	20.396597
281.543854	1192.372925	2710.145264	1529.150024	22.188908
281.918671	1144.586914	2769.308838	1504.119263	22.128855
282.293365	1121.831787	2908.115479	1520.047852	22.292992
282.668091	1096.801025	3165.249512	1551.905151	22.002197
283.042786	1089.974487	3099.259277	1615.619751	26.160814
283.417419	1094.525513	3281.301025	1549.629639	20.811653
283.792053	1146.862427	3197.106689	1633.823975	23.751392
284.166595	1130.933838	2990.034424	1576.935913	23.990208
284.541138	1121.831787	3035.544678	1624.721802	26.278236
284.915619	1080.872437	2910.391113	1595.140137	28.109453
285.290100	1121.831787	3008.238525	1504.119263	20.265379
285.664520	1165.066650	3094.708252	1588.313477	21.933960
286.038940	1119.556274	3081.055176	1611.068726	25.058002
286.413300	1105.903076	3215.310791	1599.691162	23.408850
286.787628	1153.689087	3281.301025	1738.497925	27.486633
287.161896	1160.515625	3399.628174	1708.916138	24.491869
287.536194	1130.933838	3390.525879	1688.436401	24.672709
287.910400	1128.658325	3388.250488	1690.711914	24.874115
288.284607	1003.504700	3351.842041	1674.783325	28.585272
288.658752	1155.964600	3060.575439	1570.109375	21.744326
289.032867	1121.831787	3005.962891	1583.762451	24.516907
289.406921	1121.831787	3083.330566	1626.997314	25.754057
289.781006	1124.107300	3160.698486	1692.987427	27.932957
290.154999	1146.862427	3194.831299	1542.803101	19.333334
290.529022	1133.209351	3281.301025	1590.588989	21.292370
290.902954	1053.566162	3404.179199	1690.711914	27.105515
291.276825	1103.627563	3479.271240	1770.355225	28.065138
291.650757	1069.494751	3458.791504	1779.457275	29.714287
292.024597	1094.525513	3392.801514	1690.711914	25.940594
292.398407	1085.423462	3401.903564	1790.834839	30.451866
292.772156	1178.719727	3345.015625	1758.977539	26.785713
293.145905	1096.801025	3247.168213	1599.691162	23.386246
293.519592	1146.862427	3217.586426	1624.721802	23.076921
293.893280	1130.933838	3285.852051	1629.272949	23.125662
294.266907	1078.596802	3228.964111	1652.028076	26.666668
294.640533	1069.494751	3429.209961	1649.752563	24.590162
295.014069	1083.147949	3429.209961	1784.008301	29.873905
295.387604	1121.831787	3686.343750	1829.518677	27.595383
295.761078	1085.423462	3754.609375	1784.008301	26.172205
296.134552	1128.658325	3677.241699	1713.467163	22.946426
296.507996	1165.066650	3718.200928	1784.008301	24.242424
296.881378	1067.219238	3759.160400	1822.692139	28.064243
297.254730	1080.872437	3988.988037	1770.355225	23.708918
297.628021	1126.382813	4070.906738	1797.661377	22.797525
298.001282	1142.311401	4159.651855	1879.580200	24.434393
298.374573	1121.831787	4282.530273	1861.375977	23.398125
298.747803	1096.801025	4257.499512	1897.784302	25.341970
299.121002	1096.801025	3988.988037	1743.048950	22.344610
299.494141	1124.107300	3729.578613	1729.395752	23.231440
299.867188	1119.556274	3624.904541	1758.977539	25.522251
300.240265	1076.321289	3720.476563	1722.569214	24.440619
300.613312	1174.168701	3681.792725	1736.222412	22.413795
300.986328	1224.230225	3520.230713	1752.151001	22.993061
301.359314	1094.525513	3499.750977	1642.926025	22.800377
301.732239	1194.648438	3367.770752	1642.926025	20.628273
302.105103	1171.893188	3447.414063	1704.365112	23.400000
302.477997	1080.872437	3608.976074	1749.875488	26.462645
302.850830	1149.138062	3593.047363	1681.609863	21.787708
303.223602	1140.035889	3422.383301	1663.405762	22.931210
303.596375	1119.556274	3497.475586	1679.334351	23.540667
303.969116	1101.352051	3251.719238	1636.099487	24.867727
304.341766	1110.454102	3319.984863	1608.793213	22.554070
304.714478	1135.484863	3324.535889	1638.375000	22.972975
305.087067	1051.290649	3224.413086	1629.272949	26.596857
305.459656	1126.382813	3279.025391	1601.966675	22.093025
305.832214	1085.423462	3165.249512	1649.752563	27.133474
306.204681	1174.168701	3190.280273	1588.313477	20.541759
306.577148	1151.413574	3299.505127	1579.211426	19.915253
306.949646	1180.995239	3397.352539	1590.588989	18.480492
307.322021	1126.382813	3228.964111	1608.793213	22.943722
307.694397	1128.658325	3308.607178	1622.446289	22.651358
308.066742	1058.117188	3408.730225	1617.895264	23.814131
308.439026	1092.250000	3370.046387	1642.926025	24.175823
308.811279	1128.658325	3527.057129	1645.201538	21.537001
309.183502	1067.219238	3677.241699	1622.446289	21.272884
309.555695	1112.729614	3654.486328	1733.946899	24.440468
309.927887	1071.770264	3656.761963	1690.711914	23.943661
310.299988	1146.862427	3688.619141	1690.711914	21.396597
310.672058	1146.862427	3788.742188	1663.405762	19.552113
311.044128	1155.964600	3777.364502	1649.752563	18.836803
311.416168	1119.556274	3872.936523	1692.987427	20.826441
311.788147	1115.005249	3781.915527	1820.416626	26.450512
312.160065	1199.199463	3829.701416	1736.222412	20.415228
312.531982	1089.974487	3822.875000	1740.773438	23.813490
312.903870	1130.933838	3659.037354	1663.405762	21.062109
313.275696	1117.280762	3579.394287	1722.569214	24.584101
313.647491	1149.138062	3627.180176	1588.313477	17.722679
314.019318	1119.556274	3554.363525	1699.814087	23.831778
314.391022	1124.107300	3488.373291	1597.415649	20.019251
314.762726	1124.107300	3556.638916	1626.997314	20.673523
315.134369	1126.382813	3684.068115	1699.814087	22.419931
315.505981	1194.648438	3668.139648	1720.293701	21.251148
315.877594	1092.250000	3866.109863	1681.609863	21.246923
316.249146	1096.801025	3740.956299	1715.742676	23.407917
316.620636	1169.617676	3606.700439	1645.201538	19.514473
316.992157	1194.648438	3513.404053	1606.517700	17.762512
317.363586	1121.831787	3411.005615	1656.579102	23.359838
317.735016	1094.525513	3442.863037	1583.762451	20.833332
318.106354	1117.280762	3385.974854	1570.109375	19.959879
