Jaz Data File
++++++++++++++++++++++++++++++++++++
Date: Sun Sep 29 07:27:50 2024
User: jaz
Dark Spectrum Present: Yes
Reference Spectrum Present: Yes
Processed Spectrum Present: Yes
Spectrometers: JAZA3692
Integration Time (usec): 40000 (JAZA3692)
Spectra Averaged: 1 (JAZA3692)
Boxcar Smoothing: 0 (JAZA3692)
Correct for Electrical Dark: No (JAZA3692)
Strobe/Lamp Enabled: Yes (JAZA3692)
Correct for Detector Non-linearity: No (JAZA3692)
Correct for Stray Light: No (JAZA3692)
Number of Pixels in Processed Spectrum: 2048
>>>>>Begin Processed Spectral Data<<<<<
W	D	R	S	P
190.244385	0.000000	0.000000	0.000000	0.000000
190.627136	0.000000	0.000000	0.000000	0.000000
191.009842	1105.903076	1067.219238	1112.729614	-17.647003
191.392532	1112.729614	1064.943726	1071.770264	85.714325
191.775177	1137.760376	1119.556274	1074.045776	350.001343
192.157791	1144.586914	1085.423462	1105.903076	65.384689
192.540390	1196.923950	1151.413574	1185.546387	24.999933
192.922943	1178.719727	1074.045776	1146.862427	30.434793
193.305481	1183.270874	1162.791138	1112.729614	344.444183
193.687958	1105.903076	1190.097412	1069.494751	-43.243198
194.070419	1112.729614	1087.698975	1144.586914	-127.273216
194.452866	1221.954712	1178.719727	1128.658325	215.789108
194.835251	1187.821899	1249.260864	1158.240112	-48.148251
195.217621	1199.199463	1210.577026	1112.729614	-760.003235
195.599960	1142.311401	1135.484863	1171.893188	-433.335114
195.982254	1078.596802	1137.760376	1171.893188	157.692276
196.364517	1124.107300	1146.862427	1115.005249	-40.000000
196.746750	1167.342163	1128.658325	1121.831787	117.647003
197.128952	1178.719727	1169.617676	1112.729614	725.002686
197.511139	1167.342163	1233.332275	1144.586914	-34.482815
197.893280	1165.066650	1092.250000	1130.933838	46.875011
198.275391	1087.698975	1187.821899	1133.209351	45.454502
198.657471	1119.556274	1206.026001	1178.719727	68.420998
199.039520	1130.933838	1256.087524	1128.658325	-1.818175
199.421539	1171.893188	1215.128052	1119.556274	-121.052574
199.803513	1185.546387	1110.454102	1074.045776	148.484772
200.185471	1099.076538	1144.586914	1155.964600	125.000198
200.567383	1208.301514	1162.791138	1128.658325	175.000061
200.949265	1167.342163	1221.954712	1169.617676	4.166648
201.331131	1124.107300	1137.760376	1169.617676	333.334229
201.712967	1140.035889	1101.352051	1192.372925	-135.294327
202.094742	1133.209351	1180.995239	1119.556274	-28.571356
202.476517	1083.147949	1199.199463	1169.617676	74.509781
202.858231	1128.658325	1153.689087	1099.076538	-118.181732
203.239944	1103.627563	1155.964600	1128.658325	47.826096
203.621582	1121.831787	1130.933838	1094.525513	-300.001343
204.003235	1137.760376	1112.729614	1151.413574	-54.545677
204.384827	1144.586914	1185.546387	1153.689087	22.222387
204.766388	1108.178589	1215.128052	1049.015137	-55.319073
205.147934	1078.596802	1153.689087	1080.872437	3.030451
205.529449	1146.862427	1133.209351	1124.107300	166.666672
205.910904	1119.556274	1206.026001	1162.791138	50.000000
206.292343	1115.005249	1092.250000	1117.280762	-9.999947
206.673767	1140.035889	1158.240112	1094.525513	-249.998993
207.055115	1233.332275	1094.525513	1096.801025	98.360664
207.436462	1076.321289	1174.168701	1158.240112	83.720993
207.817780	1151.413574	1096.801025	1130.933838	37.500057
208.199051	1126.382813	1187.821899	1158.240112	51.851845
208.580307	1044.463989	1108.178589	1108.178589	100.000000
208.961517	1092.250000	1126.382813	1112.729614	59.999786
209.342712	1069.494751	1121.831787	1094.525513	47.826096
209.723846	1092.250000	1149.138062	1094.525513	3.999983
210.104965	1187.821899	1140.035889	1112.729614	157.142822
210.486069	1128.658325	1190.097412	1069.494751	-96.296310
210.867111	1078.596802	1128.658325	1169.617676	181.818024
211.248123	1176.444214	1130.933838	1069.494751	235.000168
211.629120	1130.933838	1169.617676	1167.342163	94.117668
212.010071	1089.974487	1142.311401	1165.066650	143.478394
212.390991	1126.382813	1128.658325	1083.147949	-1900.005371
212.771881	1187.821899	1128.658325	1092.250000	161.538406
213.152756	1160.515625	1171.893188	1137.760376	-200.001068
213.533569	1115.005249	1146.862427	1117.280762	7.142857
213.914368	1124.107300	1196.923950	1153.689087	40.625031
214.295135	1199.199463	1201.474976	1105.903076	-4100.016113
214.675858	1140.035889	1112.729614	1137.760376	8.333296
215.056549	1130.933838	1101.352051	1117.280762	46.153656
215.437225	1153.689087	1130.933838	1171.893188	-79.999573
215.817841	1155.964600	1196.923950	1162.791138	16.666616
216.198441	1115.005249	1176.444214	1144.586914	48.148052
216.579025	1140.035889	1160.515625	1135.484863	-22.222090
216.959549	1128.658325	1233.332275	1201.474976	69.565208
217.340057	1067.219238	1144.586914	1115.005249	61.764828
217.720535	1165.066650	1160.515625	1140.035889	550.002686
218.100967	1153.689087	1160.515625	1087.698975	-966.670227
218.481369	1151.413574	1128.658325	1167.342163	-69.999626
218.861740	1119.556274	1117.280762	1144.586914	-1100.000000
219.242065	1119.556274	1146.862427	1130.933838	41.666668
219.622391	1153.689087	1115.005249	1067.219238	223.529648
220.002670	1083.147949	1142.311401	1105.903076	38.461460
220.382919	1146.862427	1130.933838	1115.005249	200.000000
220.763123	1128.658325	1162.791138	1117.280762	-33.333214
221.143295	1128.658325	1190.097412	1099.076538	-48.148155
221.523453	1169.617676	1180.995239	1126.382813	-380.001068
221.903549	1121.831787	1194.648438	1153.689087	43.750019
222.283630	1142.311401	1212.852539	1108.178589	-48.387104
222.663696	1160.515625	1126.382813	1201.474976	-119.999931
223.043701	1115.005249	1196.923950	1105.903076	-11.111227
223.423676	1058.117188	1142.311401	1124.107300	78.378441
223.803635	1140.035889	1149.138062	1153.689087	149.999329
224.183548	1080.872437	1192.372925	1153.689087	65.306129
224.563431	1033.086426	1192.372925	1155.964600	77.142868
224.943283	1115.005249	1174.168701	1053.566162	-103.846352
225.323105	1110.454102	1144.586914	1133.209351	66.666786
225.702881	1133.209351	1199.199463	1124.107300	-13.793053
226.082642	1085.423462	1149.138062	1080.872437	-7.142830
226.462357	1146.862427	1244.709839	1115.005249	-32.558018
226.842041	1087.698975	1165.066650	1094.525513	8.823502
227.221695	1124.107300	1178.719727	1121.831787	-4.166657
227.601318	1137.760376	1171.893188	1162.791138	73.333427
227.980911	1135.484863	1171.893188	1140.035889	12.499958
228.360474	1058.117188	1206.026001	1108.178589	33.846123
228.739990	1171.893188	1290.220337	1174.168701	1.923069
229.119476	1105.903076	1231.056763	1196.923950	72.727280
229.498932	1074.045776	1237.883301	1183.270874	66.666718
229.878372	1124.107300	1324.353149	1192.372925	34.090908
230.257736	1167.342163	1454.057739	1219.679199	18.253992
230.637115	1126.382813	1383.516602	1176.444214	19.469009
231.016449	1067.219238	1367.588013	1155.964600	29.545469
231.395737	1155.964600	1381.241089	1126.382813	-13.131325
231.774994	1144.586914	1306.148926	1178.719727	21.126757
232.154221	1128.658325	1253.812012	1228.781250	79.999977
232.533417	1087.698975	1292.495850	1210.577026	59.999966
232.912582	1071.770264	1292.495850	1224.230225	69.072174
233.291702	1117.280762	1278.842651	1137.760376	12.676018
233.670792	1149.138062	1272.016113	1167.342163	14.814771
234.049866	1151.413574	1328.904175	1140.035889	-6.410303
234.428894	1117.280762	1310.699951	1124.107300	3.529401
234.807892	1155.964600	1315.250977	1206.026001	31.428553
235.186874	1178.719727	1256.087524	1199.199463	26.470621
235.565781	1128.658325	1269.740601	1194.648438	46.774204
235.944687	1087.698975	1328.904175	1208.301514	49.999973
236.323547	1133.209351	1317.526489	1240.158813	58.024696
236.702377	1110.454102	1272.016113	1171.893188	38.028175
237.081177	1115.005249	1278.842651	1174.168701	36.111076
237.459946	1130.933838	1297.046875	1199.199463	41.095886
237.838669	1167.342163	1340.281738	1146.862427	-11.842134
238.217361	1130.933838	1353.934937	1192.372925	27.551023
238.596039	1110.454102	1381.241089	1196.923950	31.932793
238.974670	1087.698975	1326.628662	1194.648438	44.761898
239.353271	1030.810913	1406.271851	1196.923950	44.242428
239.731842	1115.005249	1381.241089	1146.862427	11.965774
240.110367	1146.862427	1401.720825	1153.689087	2.678609
240.488876	1140.035889	1322.077637	1183.270874	23.750038
240.867340	1089.974487	1399.445313	1190.097412	32.352943
241.245789	1151.413574	1392.618774	1192.372925	16.981123
241.624176	1124.107300	1460.884399	1206.026001	24.324308
242.002548	1130.933838	1526.874512	1180.995239	12.643662
242.380890	1169.617676	1479.088501	1292.495850	39.705898
242.759186	1128.658325	1633.823975	1194.648438	13.063064
243.137451	1144.586914	1692.987427	1274.291626	23.651457
243.515686	1146.862427	1802.212524	1278.842651	20.138889
243.893890	1142.311401	1745.324463	1228.781250	14.339631
244.272049	1055.841675	1875.029175	1301.597900	29.999996
244.650192	1140.035889	1761.253052	1210.577026	11.355310
245.028290	1135.484863	1672.507813	1251.536499	21.610182
245.406357	1135.484863	1663.405762	1253.812012	22.413803
245.784393	1144.586914	1617.895264	1256.087524	23.557711
246.162384	1149.138062	1617.895264	1246.985352	20.873768
246.540359	1140.035889	1647.477051	1347.108276	40.807171
246.918289	1128.658325	1704.365112	1278.842651	26.086946
247.296204	1146.862427	1843.171875	1326.628662	25.817003
247.674057	1201.474976	2100.305664	1292.495850	10.126587
248.051895	1162.791138	2296.000488	1413.098389	22.088350
248.429703	1146.862427	2355.164063	1360.761475	17.702454
248.807465	1155.964600	2434.807373	1415.373901	20.284691
249.185196	1124.107300	2189.051025	1319.802124	18.376072
249.562897	1096.801025	2091.203613	1285.669312	18.993141
249.940567	1110.454102	1945.570313	1324.353149	25.613089
250.318192	1155.964600	1904.610962	1278.842651	16.413364
250.695801	1167.342163	1831.794189	1274.291626	16.095890
251.073349	1174.168701	1733.946899	1237.883301	11.382115
251.450882	1135.484863	1736.222412	1242.434326	17.803026
251.828400	1133.209351	1779.457275	1217.403687	13.028179
252.205872	1115.005249	1758.977539	1180.995239	10.247334
252.583313	1130.933838	1752.151001	1265.189575	21.611723
252.960693	1112.729614	1813.590088	1272.016113	22.727276
253.338074	1071.770264	1909.161987	1299.322388	27.173916
253.715408	1142.311401	1906.886475	1251.536499	14.285726
254.092682	1099.076538	1868.202637	1283.393677	23.964489
254.469955	1087.698975	1749.875488	1219.679199	19.931276
254.847198	1121.831787	1683.885376	1272.016113	26.720642
255.224365	1149.138062	1677.058838	1215.128052	12.499980
255.601563	1115.005249	1738.497925	1180.995239	10.583924
255.978683	1089.974487	1747.599976	1265.189575	26.643597
256.355743	1115.005249	1720.293701	1242.434326	21.052620
256.732819	1171.893188	1720.293701	1169.617676	-0.414936
257.109894	1133.209351	1631.548462	1224.230225	18.264847
257.486877	1183.270874	1708.916138	1308.424438	23.809511
257.863831	1142.311401	1731.671387	1260.638550	20.077229
258.240753	1135.484863	1870.478149	1276.567139	19.195044
258.617645	1162.791138	1818.141113	1281.118164	18.055548
258.994507	1060.392700	1970.601074	1306.148926	26.999996
259.371307	1078.596802	2016.111450	1335.730713	27.427189
259.748108	1096.801025	2182.224365	1417.649414	29.559746
260.124878	1121.831787	2361.990479	1328.904175	16.697248
260.501617	1094.525513	2630.501953	1338.006226	15.851852
260.878296	1103.627563	2949.074951	1431.302612	17.755859
261.254944	1115.005249	3015.064941	1531.425537	21.916168
261.631561	1099.076538	3010.513916	1447.231201	18.214285
262.008179	1119.556274	2755.655762	1424.476074	18.636995
262.384735	1096.801025	2416.603027	1376.690063	21.206896
262.761261	1135.484863	2086.652588	1331.179688	20.574165
263.137695	1060.392700	2170.846924	1262.914063	18.237705
263.514191	1108.178589	2093.479248	1319.802124	21.478067
263.890594	1110.454102	2152.642578	1278.842651	16.157207
264.267029	1108.178589	2002.458252	1301.597900	21.628504
264.643341	1067.219238	2016.111450	1278.842651	22.302155
265.019653	1094.525513	2116.234375	1331.179688	23.162584
265.395935	1108.178589	2066.172852	1297.046875	19.714970
265.772217	1144.586914	1966.049927	1312.975464	20.498615
266.148407	1128.658325	1993.356201	1283.393677	17.894730
266.524597	1137.760376	2070.723877	1269.740601	14.146344
266.900726	1119.556274	2027.489014	1237.883301	13.032577
267.276855	1151.413574	2243.663574	1353.934937	18.541668
267.652924	1085.423462	2209.530762	1349.383789	23.481773
268.028992	1105.903076	2327.857666	1408.547363	24.767229
268.404999	1183.270874	2305.102539	1306.148926	10.953341
268.781006	1137.760376	2389.296875	1342.557251	16.363636
269.156921	1062.668213	2296.000488	1372.139038	25.092251
269.532837	1171.893188	2346.062012	1403.996338	19.767443
269.908661	1165.066650	2296.000488	1422.200562	22.736423
270.284546	1112.729614	2250.489990	1258.363037	12.800009
270.660339	1076.321289	2248.214600	1367.588013	24.854372
271.036133	1185.546387	2282.347412	1333.455200	13.485474
271.411835	1101.352051	2473.491211	1399.445313	21.724710
271.787537	1137.760376	2493.970703	1372.139038	17.281881
272.163239	1151.413574	2703.318604	1392.618774	15.542523
272.538849	1105.903076	2873.982666	1447.231201	19.305021
272.914459	1119.556274	2960.452637	1435.853638	17.181704
273.290070	1165.066650	2855.778564	1463.159912	17.631227
273.665588	1080.872437	2673.737061	1347.108276	16.714279
274.041046	1135.484863	2707.869873	1381.241089	15.629519
274.416565	1180.995239	2664.634766	1465.435425	19.171785
274.791962	1117.280762	2637.328613	1497.292725	25.000000
275.167389	1055.841675	2553.134277	1410.822876	23.708204
275.542755	1121.831787	2450.735840	1392.618774	20.376715
275.918060	1033.086426	2455.286865	1444.955688	28.960001
276.293365	1117.280762	2514.450439	1399.445313	20.195438
276.668640	1124.107300	2523.552490	1408.547363	20.325203
277.043854	1060.392700	2614.573486	1419.924927	23.133230
277.419037	1083.147949	2546.307861	1401.720825	21.772936
277.794189	1119.556274	2557.685303	1447.231201	22.784807
278.169312	1126.382813	2548.583252	1413.098389	20.159998
278.544373	1117.280762	2607.746826	1431.302612	21.068703
278.919464	1135.484863	2580.440674	1417.649414	19.527555
279.294464	1103.627563	2559.960938	1483.639526	26.093748
279.669464	1171.893188	2573.614014	1522.323364	24.999998
280.044403	1165.066650	2630.501953	1417.649414	17.236023
280.419312	1206.026001	2650.981689	1508.670288	20.944883
280.794189	1140.035889	2594.093750	1495.017212	24.413149
281.169037	1121.831787	2728.349365	1542.803101	26.203966
281.543854	1192.372925	2710.145264	1469.986450	18.290854
281.918671	1144.586914	2769.308838	1540.527588	24.369751
282.293365	1121.831787	2908.115479	1545.078613	23.694267
282.668091	1096.801025	3165.249512	1620.170776	25.302528
283.042786	1089.974487	3099.259277	1601.966675	25.481316
283.417419	1094.525513	3281.301025	1617.895264	23.933403
283.792053	1146.862427	3197.106689	1579.211426	21.087685
284.166595	1130.933838	2990.034424	1574.660400	23.867807
284.541138	1121.831787	3035.544678	1633.823975	26.753866
284.915619	1080.872437	2910.391113	1586.037964	27.611937
285.290100	1121.831787	3008.238525	1542.803101	22.316042
285.664520	1165.066650	3094.708252	1540.527588	19.457548
286.038940	1119.556274	3081.055176	1565.558350	22.737820
286.413300	1105.903076	3215.310791	1615.619751	24.163971
286.787628	1153.689087	3281.301025	1633.823975	22.566847
287.161896	1160.515625	3399.628174	1672.507813	22.865852
287.536194	1130.933838	3390.525879	1604.242188	20.946629
287.910400	1128.658325	3388.250488	1695.262939	25.075525
288.284607	1003.504700	3351.842041	1720.293701	30.523254
288.658752	1155.964600	3060.575439	1652.028076	26.045399
289.032867	1121.831787	3005.962891	1604.242188	25.603867
289.406921	1121.831787	3083.330566	1626.997314	25.754057
289.781006	1124.107300	3160.698486	1572.384888	22.011171
290.154999	1146.862427	3194.831299	1686.160889	26.333332
290.529022	1133.209351	3281.301025	1652.028076	24.152540
290.902954	1053.566162	3404.179199	1758.977539	30.009676
291.276825	1103.627563	3479.271240	1674.783325	24.042149
291.650757	1069.494751	3458.791504	1683.885376	25.714285
292.024597	1094.525513	3392.801514	1697.538574	26.237627
292.398407	1085.423462	3401.903564	1656.579102	24.656187
292.772156	1178.719727	3345.015625	1615.619751	20.168068
293.145905	1096.801025	3247.168213	1599.691162	23.386246
293.519592	1146.862427	3217.586426	1579.211426	20.879122
293.893280	1130.933838	3285.852051	1640.650513	23.653645
294.266907	1078.596802	3228.964111	1722.569214	29.947090
294.640533	1069.494751	3429.209961	1702.089600	26.808100
295.014069	1083.147949	3429.209961	1661.130127	24.636271
295.387604	1121.831787	3686.343750	1736.222412	23.957409
295.761078	1085.423462	3754.609375	1749.875488	24.893433
296.134552	1128.658325	3677.241699	1756.702026	24.642853
296.507996	1165.066650	3718.200928	1727.120239	22.014259
296.881378	1067.219238	3759.160400	1761.253052	25.781908
297.254730	1080.872437	3988.988037	1804.488037	24.882627
297.628021	1126.382813	4070.906738	1793.110352	22.642965
298.001282	1142.311401	4159.651855	1777.181763	21.040728
298.374573	1121.831787	4282.530273	1934.192627	25.701941
298.747803	1096.801025	4257.499512	1877.304688	24.694025
299.121002	1096.801025	3988.988037	1868.202637	26.671913
299.494141	1124.107300	3729.578613	1754.426514	24.192139
299.867188	1119.556274	3624.904541	1770.355225	25.976387
300.240265	1076.321289	3720.476563	1731.671387	24.784857
300.613312	1174.168701	3681.792725	1629.272949	18.148823
300.986328	1224.230225	3520.230713	1743.048950	22.596630
301.359314	1094.525513	3499.750977	1688.436401	24.692524
301.732239	1194.648438	3367.770752	1713.467163	23.874346
302.105103	1171.893188	3447.414063	1613.344238	19.400000
302.477997	1080.872437	3608.976074	1615.619751	21.152113
302.850830	1149.138062	3593.047363	1672.507813	21.415270
303.223602	1140.035889	3422.383301	1611.068726	20.638086
303.596375	1119.556274	3497.475586	1670.232300	23.157892
303.969116	1101.352051	3251.719238	1667.956787	26.349209
304.341766	1110.454102	3319.984863	1590.588989	21.730175
304.714478	1135.484863	3324.535889	1608.793213	21.621622
305.087067	1051.290649	3224.413086	1620.170776	26.178005
305.459656	1126.382813	3279.025391	1683.885376	25.898520
305.832214	1085.423462	3165.249512	1617.895264	25.601746
306.204681	1174.168701	3190.280273	1595.140137	20.880363
306.577148	1151.413574	3299.505127	1606.517700	21.186440
306.949646	1180.995239	3397.352539	1633.823975	20.431215
307.322021	1126.382813	3228.964111	1579.211426	21.536795
307.694397	1128.658325	3308.607178	1601.966675	21.711903
308.066742	1058.117188	3408.730225	1531.425537	20.135529
308.439026	1092.250000	3370.046387	1579.211426	21.378620
308.811279	1128.658325	3527.057129	1590.588989	19.259960
309.183502	1067.219238	3677.241699	1679.334351	23.452484
309.555695	1112.729614	3654.486328	1590.588989	18.800358
309.927887	1071.770264	3656.761963	1690.711914	23.943661
310.299988	1146.862427	3688.619141	1688.436401	21.307072
310.672058	1146.862427	3788.742188	1722.569214	21.791557
311.044128	1155.964600	3777.364502	1686.160889	20.225693
311.416168	1119.556274	3872.936523	1672.507813	20.082642
311.788147	1115.005249	3781.915527	1683.885376	21.331057
312.160065	1199.199463	3829.701416	1652.028076	17.214533
312.531982	1089.974487	3822.875000	1645.201538	20.316402
312.903870	1130.933838	3659.037354	1652.028076	20.612061
313.275696	1117.280762	3579.394287	1647.477051	21.534193
313.647491	1149.138062	3627.180176	1604.242188	18.365473
314.019318	1119.556274	3554.363525	1665.681274	22.429909
314.391022	1124.107300	3488.373291	1661.130127	22.714146
314.762726	1124.107300	3556.638916	1624.721802	20.579979
315.134369	1126.382813	3684.068115	1679.334351	21.619217
315.505981	1194.648438	3668.139648	1661.130127	18.859241
315.877594	1092.250000	3866.109863	1640.650513	19.770304
316.249146	1096.801025	3740.956299	1606.517700	19.277109
316.620636	1169.617676	3606.700439	1581.486938	16.900093
316.992157	1194.648438	3513.404053	1567.833862	16.094212
317.363586	1121.831787	3411.005615	1579.211426	19.980118
317.735016	1094.525513	3442.863037	1529.150024	18.507753
