Jaz Data File
++++++++++++++++++++++++++++++++++++
Date: Sun Sep 29 07:27:56 2024
User: jaz
Dark Spectrum Present: Yes
Reference Spectrum Present: Yes
Processed Spectrum Present: Yes
Spectrometers: JAZA3692
Integration Time (usec): 40000 (JAZA3692)
Spectra Averaged: 1 (JAZA3692)
Boxcar Smoothing: 0 (JAZA3692)
Correct for Electrical Dark: No (JAZA3692)
Strobe/Lamp Enabled: Yes (JAZA3692)
Correct for Detector Non-linearity: No (JAZA3692)
Correct for Stray Light: No (JAZA3692)
Number of Pixels in Processed Spectrum: 2048
>>>>>Begin Processed Spectral Data<<<<<
W	D	R	S	P
190.244385	0.000000	0.000000	0.000000	0.000000
190.627136	0.000000	0.000000	0.000000	0.000000
191.009842	1105.903076	1067.219238	1060.392700	117.647003
191.392532	1112.729614	1064.943726	1099.076538	28.571356
191.775177	1137.760376	1119.556274	1105.903076	175.000671
192.157791	1144.586914	1085.423462	1149.138062	-7.692498
192.540390	1196.923950	1151.413574	1162.791138	75.000069
192.922943	1178.719727	1074.045776	1240.158813	-58.695679
193.305481	1183.270874	1162.791138	1130.933838	255.555222
193.687958	1105.903076	1190.097412	1112.729614	8.108073
194.070419	1112.729614	1087.698975	1124.107300	-45.455032
194.452866	1221.954712	1178.719727	1121.831787	231.578491
194.835251	1187.821899	1249.260864	1121.831787	-107.407593
195.217621	1199.199463	1210.577026	1115.005249	-740.002136
195.599960	1142.311401	1135.484863	1176.444214	-500.001801
195.982254	1078.596802	1137.760376	1124.107300	76.923172
196.364517	1124.107300	1146.862427	1146.862427	100.000000
196.746750	1167.342163	1128.658325	1105.903076	158.823654
197.128952	1178.719727	1169.617676	1155.964600	250.000000
197.511139	1167.342163	1233.332275	1165.066650	-3.448263
197.893280	1165.066650	1092.250000	1192.372925	-37.500042
198.275391	1087.698975	1187.821899	1128.658325	40.909061
198.657471	1119.556274	1206.026001	1110.454102	-10.526427
199.039520	1130.933838	1256.087524	1192.372925	49.090912
199.421539	1171.893188	1215.128052	1096.801025	-173.684280
199.803513	1185.546387	1110.454102	1146.862427	51.515224
200.185471	1099.076538	1144.586914	1176.444214	170.000076
200.567383	1208.301514	1162.791138	1162.791138	100.000000
200.949265	1167.342163	1221.954712	1158.240112	-16.666592
201.331131	1124.107300	1137.760376	1155.964600	233.334229
201.712967	1140.035889	1101.352051	1151.413574	-29.411987
202.094742	1133.209351	1180.995239	1153.689087	42.857288
202.476517	1083.147949	1199.199463	1128.658325	39.215668
202.858231	1128.658325	1153.689087	1135.484863	27.272594
203.239944	1103.627563	1155.964600	1192.372925	169.565125
203.621582	1121.831787	1130.933838	1137.760376	175.000000
204.003235	1137.760376	1112.729614	1165.066650	-109.090866
204.384827	1144.586914	1185.546387	1140.035889	-11.111045
204.766388	1108.178589	1215.128052	1096.801025	-10.638262
205.147934	1078.596802	1153.689087	1142.311401	84.848396
205.529449	1146.862427	1133.209351	1099.076538	350.000885
205.910904	1119.556274	1206.026001	1149.138062	34.210571
206.292343	1115.005249	1092.250000	1130.933838	-69.999626
206.673767	1140.035889	1158.240112	1162.791138	124.999832
207.055115	1233.332275	1094.525513	1151.413574	59.016361
207.436462	1076.321289	1174.168701	1169.617676	95.348854
207.817780	1151.413574	1096.801025	1151.413574	-0.000000
208.199051	1126.382813	1187.821899	1153.689087	44.444466
208.580307	1044.463989	1108.178589	1074.045776	46.428585
208.961517	1092.250000	1126.382813	1144.586914	153.333145
209.342712	1069.494751	1121.831787	1103.627563	65.217323
209.723846	1092.250000	1149.138062	1105.903076	23.999897
210.104965	1187.821899	1140.035889	1178.719727	19.047777
210.486069	1128.658325	1190.097412	1155.964600	44.444466
210.867111	1078.596802	1128.658325	1026.259888	-104.545189
211.248123	1176.444214	1130.933838	1151.413574	54.999851
211.629120	1130.933838	1169.617676	1124.107300	-17.647003
212.010071	1089.974487	1142.311401	1196.923950	204.348053
212.390991	1126.382813	1128.658325	1185.546387	2600.010742
212.771881	1187.821899	1128.658325	1108.178589	134.615448
213.152756	1160.515625	1171.893188	1096.801025	-560.002136
213.533569	1115.005249	1146.862427	1085.423462	-92.857529
213.914368	1124.107300	1196.923950	1178.719727	74.999916
214.295135	1199.199463	1201.474976	1135.484863	-2800.010742
214.675858	1140.035889	1112.729614	1128.658325	41.666481
215.056549	1130.933838	1101.352051	1124.107300	23.076828
215.437225	1153.689087	1130.933838	1110.454102	190.000061
215.817841	1155.964600	1196.923950	1108.178589	-116.666916
216.198441	1115.005249	1176.444214	1078.596802	-59.259541
216.579025	1140.035889	1160.515625	1055.841675	-411.109863
216.959549	1128.658325	1233.332275	1096.801025	-30.434793
217.340057	1067.219238	1144.586914	1085.423462	23.529495
217.720535	1165.066650	1160.515625	1074.045776	2000.008057
218.100967	1153.689087	1160.515625	1140.035889	-200.001785
218.481369	1151.413574	1128.658325	1133.209351	80.000107
218.861740	1119.556274	1117.280762	1174.168701	-2400.005371
219.242065	1119.556274	1146.862427	1187.821899	250.000900
219.622391	1153.689087	1115.005249	1105.903076	123.529655
220.002670	1083.147949	1142.311401	1126.382813	73.076981
220.382919	1146.862427	1130.933838	1162.791138	-100.000763
220.763123	1128.658325	1162.791138	1144.586914	46.666500
221.143295	1128.658325	1190.097412	1124.107300	-7.407378
221.523453	1169.617676	1180.995239	1142.311401	-240.001068
221.903549	1121.831787	1194.648438	1128.658325	9.374969
222.283630	1142.311401	1212.852539	1133.209351	-12.903181
222.663696	1160.515625	1126.382813	1115.005249	133.333221
223.043701	1115.005249	1196.923950	1108.178589	-8.333458
223.423676	1058.117188	1142.311401	1171.893188	135.135178
223.803635	1140.035889	1149.138062	1071.770264	-749.992615
224.183548	1080.872437	1192.372925	1021.708862	-53.061268
224.563431	1033.086426	1192.372925	1080.872437	30.000038
224.943283	1115.005249	1174.168701	1171.893188	96.153854
225.323105	1110.454102	1144.586914	1153.689087	126.666931
225.702881	1133.209351	1199.199463	1117.280762	-24.137842
226.082642	1085.423462	1149.138062	1119.556274	53.571415
226.462357	1146.862427	1244.709839	1183.270874	37.209412
226.842041	1087.698975	1165.066650	1151.413574	82.352997
227.221695	1124.107300	1178.719727	1130.933838	12.499972
227.601318	1137.760376	1171.893188	1165.066650	80.000069
227.980911	1135.484863	1171.893188	1092.250000	-118.749939
228.360474	1058.117188	1206.026001	1162.791138	70.769241
228.739990	1171.893188	1290.220337	1144.586914	-23.076931
229.119476	1105.903076	1231.056763	1146.862427	32.727242
229.498932	1074.045776	1237.883301	1167.342163	56.944454
229.878372	1124.107300	1324.353149	1153.689087	14.772735
230.257736	1167.342163	1454.057739	1199.199463	11.111115
230.637115	1126.382813	1383.516602	1180.995239	21.238914
231.016449	1067.219238	1367.588013	1206.026001	46.212116
231.395737	1155.964600	1381.241089	1142.311401	-6.060640
231.774994	1144.586914	1306.148926	1126.382813	-11.267563
232.154221	1128.658325	1253.812012	1196.923950	54.545437
232.533417	1087.698975	1292.495850	1201.474976	55.555534
232.912582	1071.770264	1292.495850	1228.781250	71.134018
233.291702	1117.280762	1278.842651	1194.648438	47.887329
233.670792	1149.138062	1272.016113	1199.199463	40.740719
234.049866	1151.413574	1328.904175	1146.862427	-2.564162
234.428894	1117.280762	1310.699951	1112.729614	-2.352997
234.807892	1155.964600	1315.250977	1221.954712	41.428596
235.186874	1178.719727	1256.087524	1062.668213	-149.999756
235.565781	1128.658325	1269.740601	1174.168701	32.258038
235.944687	1087.698975	1328.904175	1221.954712	55.660381
236.323547	1133.209351	1317.526489	1162.791138	16.049397
236.702377	1110.454102	1272.016113	1162.791138	32.394394
237.081177	1115.005249	1278.842651	1196.923950	50.000000
237.459946	1130.933838	1297.046875	1160.515625	17.808228
237.838669	1167.342163	1340.281738	1165.066650	-1.315785
238.217361	1130.933838	1353.934937	1169.617676	17.346928
238.596039	1110.454102	1381.241089	1176.444214	24.369751
238.974670	1087.698975	1326.628662	1153.689087	27.619051
239.353271	1030.810913	1406.271851	1146.862427	30.909079
239.731842	1115.005249	1381.241089	1178.719727	23.931593
240.110367	1146.862427	1401.720825	1194.648438	18.750025
240.488876	1140.035889	1322.077637	1208.301514	37.499985
240.867340	1089.974487	1399.445313	1092.250000	0.735291
241.245789	1151.413574	1392.618774	1169.617676	7.547143
241.624176	1124.107300	1460.884399	1162.791138	11.486481
242.002548	1130.933838	1526.874512	1201.474976	17.816088
242.380890	1169.617676	1479.088501	1192.372925	7.352954
242.759186	1128.658325	1633.823975	1160.515625	6.306308
243.137451	1144.586914	1692.987427	1231.056763	15.767646
243.515686	1146.862427	1802.212524	1299.322388	23.263895
243.893890	1142.311401	1745.324463	1276.567139	22.264151
244.272049	1055.841675	1875.029175	1240.158813	22.499994
244.650192	1140.035889	1761.253052	1221.954712	13.186826
245.028290	1135.484863	1672.507813	1237.883301	19.067795
245.406357	1135.484863	1663.405762	1149.138062	2.586221
245.784393	1144.586914	1617.895264	1244.709839	21.153847
246.162384	1149.138062	1617.895264	1219.679199	15.048545
246.540359	1140.035889	1647.477051	1130.933838	-1.793715
246.918289	1128.658325	1704.365112	1308.424438	31.225290
247.296204	1146.862427	1843.171875	1294.771362	21.241840
247.674057	1201.474976	2100.305664	1417.649414	24.050629
248.051895	1162.791138	2296.000488	1353.934937	16.867474
248.429703	1146.862427	2355.164063	1460.884399	25.988707
248.807465	1155.964600	2434.807373	1413.098389	20.106756
249.185196	1124.107300	2189.051025	1347.108276	20.940165
249.562897	1096.801025	2091.203613	1335.730713	24.027460
249.940567	1110.454102	1945.570313	1376.690063	31.880110
250.318192	1155.964600	1904.610962	1290.220337	17.933132
250.695801	1167.342163	1831.794189	1285.669312	17.808231
251.073349	1174.168701	1733.946899	1269.740601	17.073174
251.450882	1135.484863	1736.222412	1217.403687	13.636374
251.828400	1133.209351	1779.457275	1242.434326	16.901405
252.205872	1115.005249	1758.977539	1310.699951	30.388683
252.583313	1130.933838	1752.151001	1287.944824	25.274734
252.960693	1112.729614	1813.590088	1287.944824	25.000013
253.338074	1071.770264	1909.161987	1235.607788	19.565220
253.715408	1142.311401	1906.886475	1253.812012	14.583344
254.092682	1099.076538	1868.202637	1235.607788	17.751478
254.469955	1087.698975	1749.875488	1287.944824	30.240555
254.847198	1121.831787	1683.885376	1235.607788	20.242910
255.224365	1149.138062	1677.058838	1242.434326	17.672400
255.601563	1115.005249	1738.497925	1237.883301	19.708019
255.978683	1089.974487	1747.599976	1246.985352	23.875423
256.355743	1115.005249	1720.293701	1253.812012	22.932333
256.732819	1171.893188	1720.293701	1260.638550	16.182581
257.109894	1133.209351	1631.548462	1185.546387	10.502294
257.486877	1183.270874	1708.916138	1285.669312	19.480522
257.863831	1142.311401	1731.671387	1251.536499	18.532833
258.240753	1135.484863	1870.478149	1237.883301	13.931888
258.617645	1162.791138	1818.141113	1344.832764	27.777773
258.994507	1060.392700	1970.601074	1221.954712	17.750002
259.371307	1078.596802	2016.111450	1262.914063	19.660200
259.748108	1096.801025	2182.224365	1319.802124	20.545080
260.124878	1121.831787	2361.990479	1349.383789	18.348619
260.501617	1094.525513	2630.501953	1367.588013	17.777779
260.878296	1103.627563	2949.074951	1410.822876	16.646116
261.254944	1115.005249	3015.064941	1438.129150	17.005987
261.631561	1099.076538	3010.513916	1515.496826	21.785715
262.008179	1119.556274	2755.655762	1358.485962	14.603616
262.384735	1096.801025	2416.603027	1374.414551	21.034483
262.761261	1135.484863	2086.652588	1374.414551	25.119617
263.137695	1060.392700	2170.846924	1367.588013	27.663933
263.514191	1108.178589	2093.479248	1353.934937	24.942270
263.890594	1110.454102	2152.642578	1328.904175	20.960707
264.267029	1108.178589	2002.458252	1303.873413	21.882956
264.643341	1067.219238	2016.111450	1317.526489	26.378891
265.019653	1094.525513	2116.234375	1310.699951	21.158125
265.395935	1108.178589	2066.172852	1180.995239	7.600948
265.772217	1144.586914	1966.049927	1294.771362	18.282558
266.148407	1128.658325	1993.356201	1319.802124	22.105270
266.524597	1137.760376	2070.723877	1331.179688	20.731712
266.900726	1119.556274	2027.489014	1240.158813	13.283202
267.276855	1151.413574	2243.663574	1344.832764	17.708326
267.652924	1085.423462	2209.530762	1315.250977	20.445335
268.028992	1105.903076	2327.857666	1358.485962	20.670399
268.404999	1183.270874	2305.102539	1319.802124	12.170386
268.781006	1137.760376	2389.296875	1342.557251	16.363636
269.156921	1062.668213	2296.000488	1378.965576	25.645754
269.532837	1171.893188	2346.062012	1417.649414	20.930229
269.908661	1165.066650	2296.000488	1338.006226	15.291750
270.284546	1112.729614	2250.489990	1372.139038	22.800005
270.660339	1076.321289	2248.214600	1331.179688	21.747578
271.036133	1185.546387	2282.347412	1410.822876	20.539413
271.411835	1101.352051	2473.491211	1419.924927	23.217243
271.787537	1137.760376	2493.970703	1363.036987	16.610743
272.163239	1151.413574	2703.318604	1479.088501	21.114367
272.538849	1105.903076	2873.982666	1506.394775	22.651226
272.914459	1119.556274	2960.452637	1529.150024	22.249691
273.290070	1165.066650	2855.778564	1429.027100	15.612385
273.665588	1080.872437	2673.737061	1497.292725	26.142855
274.041046	1135.484863	2707.869873	1342.557251	13.169318
274.416565	1180.995239	2664.634766	1328.904175	9.969331
274.791962	1117.280762	2637.328613	1433.578125	20.808382
275.167389	1055.841675	2553.134277	1440.404663	25.683889
275.542755	1121.831787	2450.735840	1319.802124	14.897264
275.918060	1033.086426	2455.286865	1333.455200	21.120003
276.293365	1117.280762	2514.450439	1397.169800	20.032574
276.668640	1124.107300	2523.552490	1442.680176	22.764227
277.043854	1060.392700	2614.573486	1426.751587	23.572475
277.419037	1083.147949	2546.307861	1483.639526	27.371689
277.794189	1119.556274	2557.685303	1429.027100	21.518990
278.169312	1126.382813	2548.583252	1483.639526	25.119997
278.544373	1117.280762	2607.746826	1497.292725	25.496183
278.919464	1135.484863	2580.440674	1458.608887	22.362207
279.294464	1103.627563	2559.960938	1451.782227	23.906248
279.669464	1171.893188	2573.614014	1406.271851	16.720781
280.044403	1165.066650	2630.501953	1454.057739	19.720495
280.419312	1206.026001	2650.981689	1467.710938	18.110239
280.794189	1140.035889	2594.093750	1501.843750	24.882631
281.169037	1121.831787	2728.349365	1476.812988	22.096315
281.543854	1192.372925	2710.145264	1526.874512	22.038982
281.918671	1144.586914	2769.308838	1465.435425	19.747904
282.293365	1121.831787	2908.115479	1533.701050	23.057327
282.668091	1096.801025	3165.249512	1540.527588	21.452145
283.042786	1089.974487	3099.259277	1506.394775	20.724802
283.417419	1094.525513	3281.301025	1667.956787	26.222687
283.792053	1146.862427	3197.106689	1515.496826	17.980024
284.166595	1130.933838	2990.034424	1535.976563	21.787025
284.541138	1121.831787	3035.544678	1501.843750	19.857313
284.915619	1080.872437	2910.391113	1551.905151	25.746264
285.290100	1121.831787	3008.238525	1508.670288	20.506632
285.664520	1165.066650	3094.708252	1586.037964	21.816036
286.038940	1119.556274	3081.055176	1570.109375	22.969837
286.413300	1105.903076	3215.310791	1645.201538	25.566345
286.787628	1153.689087	3281.301025	1661.130127	23.850264
287.161896	1160.515625	3399.628174	1654.303589	22.052843
287.536194	1130.933838	3390.525879	1679.334351	24.269890
287.910400	1128.658325	3388.250488	1622.446289	21.852968
288.284607	1003.504700	3351.842041	1718.018188	30.426355
288.658752	1155.964600	3060.575439	1545.078613	20.430105
289.032867	1121.831787	3005.962891	1538.252075	22.101450
289.406921	1121.831787	3083.330566	1533.701050	20.997681
289.781006	1124.107300	3160.698486	1563.282837	21.564247
290.154999	1146.862427	3194.831299	1629.272949	23.555559
290.529022	1133.209351	3281.301025	1626.997314	22.987284
290.902954	1053.566162	3404.179199	1722.569214	28.460791
291.276825	1103.627563	3479.271240	1718.018188	25.862072
291.650757	1069.494751	3458.791504	1686.160889	25.809523
292.024597	1094.525513	3392.801514	1718.018188	27.128714
292.398407	1085.423462	3401.903564	1736.222412	28.094305
292.772156	1178.719727	3345.015625	1706.640625	24.369751
293.145905	1096.801025	3247.168213	1549.629639	21.058199
293.519592	1146.862427	3217.586426	1617.895264	22.747252
293.893280	1130.933838	3285.852051	1631.548462	23.231258
294.266907	1078.596802	3228.964111	1620.170776	25.185186
294.640533	1069.494751	3429.209961	1640.650513	24.204435
295.014069	1083.147949	3429.209961	1592.864502	21.726475
295.387604	1121.831787	3686.343750	1788.559326	25.998222
295.761078	1085.423462	3754.609375	1804.488037	26.939470
296.134552	1128.658325	3677.241699	1695.262939	22.232138
296.507996	1165.066650	3718.200928	1711.191650	21.390375
296.881378	1067.219238	3759.160400	1761.253052	25.781908
297.254730	1080.872437	3988.988037	1822.692139	25.508604
297.628021	1126.382813	4070.906738	1831.794189	23.956720
298.001282	1142.311401	4159.651855	1961.498901	27.149324
298.374573	1121.831787	4282.530273	1856.824951	23.254137
298.747803	1096.801025	4257.499512	1872.753662	24.550037
299.121002	1096.801025	3988.988037	1840.896362	25.727774
299.494141	1124.107300	3729.578613	1752.151001	24.104803
299.867188	1119.556274	3624.904541	1679.334351	22.343325
300.240265	1076.321289	3720.476563	1774.906250	26.419968
300.613312	1174.168701	3681.792725	1722.569214	21.869328
300.986328	1224.230225	3520.230713	1620.170776	17.244793
301.359314	1094.525513	3499.750977	1713.467163	25.733206
301.732239	1194.648438	3367.770752	1645.201538	20.732985
302.105103	1171.893188	3447.414063	1722.569214	24.199997
302.477997	1080.872437	3608.976074	1661.130127	22.952291
302.850830	1149.138062	3593.047363	1649.752563	20.484169
303.223602	1140.035889	3422.383301	1565.558350	18.644070
303.596375	1119.556274	3497.475586	1604.242188	20.382772
303.969116	1101.352051	3251.719238	1597.415649	23.068787
304.341766	1110.454102	3319.984863	1636.099487	23.789909
304.714478	1135.484863	3324.535889	1663.405762	24.116426
305.087067	1051.290649	3224.413086	1606.517700	25.549734
305.459656	1126.382813	3279.025391	1581.486938	21.141649
305.832214	1085.423462	3165.249512	1570.109375	23.304155
306.204681	1174.168701	3190.280273	1561.007324	19.187363
306.577148	1151.413574	3299.505127	1665.681274	23.940680
306.949646	1180.995239	3397.352539	1620.170776	19.815195
307.322021	1126.382813	3228.964111	1588.313477	21.969694
307.694397	1128.658325	3308.607178	1520.047852	17.954071
308.066742	1058.117188	3408.730225	1620.170776	23.910936
308.439026	1092.250000	3370.046387	1595.140137	22.077923
308.811279	1128.658325	3527.057129	1633.823975	21.062620
309.183502	1067.219238	3677.241699	1574.660400	19.442022
309.555695	1112.729614	3654.486328	1658.854614	21.486122
309.927887	1071.770264	3656.761963	1624.721802	21.390844
310.299988	1146.862427	3688.619141	1647.477051	19.695614
310.672058	1146.862427	3788.742188	1699.814087	20.930235
311.044128	1155.964600	3777.364502	1752.151001	22.743053
311.416168	1119.556274	3872.936523	1665.681274	19.834709
311.788147	1115.005249	3781.915527	1647.477051	19.965870
312.160065	1199.199463	3829.701416	1672.507813	17.993082
312.531982	1089.974487	3822.875000	1670.232300	21.232307
312.903870	1130.933838	3659.037354	1670.232300	21.332136
313.275696	1117.280762	3579.394287	1586.037964	19.038813
313.647491	1149.138062	3627.180176	1576.935913	17.263544
314.019318	1119.556274	3554.363525	1633.823975	21.121496
314.391022	1124.107300	3488.373291	1563.282837	18.575554
314.762726	1124.107300	3556.638916	1636.099487	21.047709
315.134369	1126.382813	3684.068115	1688.436401	21.975088
315.505981	1194.648438	3668.139648	1608.793213	16.743330
315.877594	1092.250000	3866.109863	1706.640625	22.149303
316.249146	1096.801025	3740.956299	1704.365112	22.977625
316.620636	1169.617676	3606.700439	1661.130127	20.168066
316.992157	1194.648438	3513.404053	1579.211426	16.584887
317.363586	1121.831787	3411.005615	1572.384888	19.681908
317.735016	1094.525513	3442.863037	1556.456177	19.670540
