Jaz Data File
++++++++++++++++++++++++++++++++++++
Date: Sun Sep 29 07:28:08 2024
User: jaz
Dark Spectrum Present: Yes
Reference Spectrum Present: Yes
Processed Spectrum Present: Yes
Spectrometers: JAZA3692
Integration Time (usec): 40000 (JAZA3692)
Spectra Averaged: 1 (JAZA3692)
Boxcar Smoothing: 0 (JAZA3692)
Correct for Electrical Dark: No (JAZA3692)
Strobe/Lamp Enabled: Yes (JAZA3692)
Correct for Detector Non-linearity: No (JAZA3692)
Correct for Stray Light: No (JAZA3692)
Number of Pixels in Processed Spectrum: 2048
>>>>>Begin Processed Spectral Data<<<<<
W	D	R	S	P
190.244385	0.000000	0.000000	0.000000	0.000000
190.627136	0.000000	0.000000	0.000000	0.000000
191.009842	1105.903076	1067.219238	1042.188477	164.705994
191.392532	1112.729614	1064.943726	1044.463989	142.857285
191.775177	1137.760376	1119.556274	1137.760376	-0.000000
192.157791	1144.586914	1085.423462	1140.035889	7.692292
192.540390	1196.923950	1151.413574	1044.463989	335.000458
192.922943	1178.719727	1074.045776	1115.005249	60.869469
193.305481	1183.270874	1162.791138	1051.290649	644.442993
193.687958	1105.903076	1190.097412	1092.250000	-16.216146
194.070419	1112.729614	1087.698975	1162.791138	-200.000977
194.452866	1221.954712	1178.719727	1165.066650	131.578766
194.835251	1187.821899	1249.260864	1160.515625	-44.444553
195.217621	1199.199463	1210.577026	1171.893188	-240.001068
195.599960	1142.311401	1135.484863	1149.138062	-100.001785
195.982254	1078.596802	1137.760376	1194.648438	196.153870
196.364517	1124.107300	1146.862427	1149.138062	110.000534
196.746750	1167.342163	1128.658325	1128.658325	100.000000
197.128952	1178.719727	1169.617676	1101.352051	850.002686
197.511139	1167.342163	1233.332275	1108.178589	-89.655212
197.893280	1165.066650	1092.250000	1162.791138	3.124990
198.275391	1087.698975	1187.821899	1115.005249	27.272749
198.657471	1119.556274	1206.026001	1165.066650	52.631573
199.039520	1130.933838	1256.087524	1196.923950	52.727261
199.421539	1171.893188	1215.128052	1146.862427	-57.894855
199.803513	1185.546387	1110.454102	1196.923950	-15.151442
200.185471	1099.076538	1144.586914	1049.015137	-109.999969
200.567383	1208.301514	1162.791138	1151.413574	124.999931
200.949265	1167.342163	1221.954712	1217.403687	91.666702
201.331131	1124.107300	1137.760376	1105.903076	-133.334229
201.712967	1140.035889	1101.352051	1130.933838	23.529337
202.094742	1133.209351	1180.995239	1155.964600	47.619183
202.476517	1083.147949	1199.199463	1176.444214	80.392113
202.858231	1128.658325	1153.689087	1160.515625	127.272591
203.239944	1103.627563	1155.964600	1140.035889	69.565125
203.621582	1121.831787	1130.933838	1110.454102	-125.001343
204.003235	1137.760376	1112.729614	1117.280762	81.817780
204.384827	1144.586914	1185.546387	1149.138062	11.111343
204.766388	1108.178589	1215.128052	1105.903076	-2.127652
205.147934	1078.596802	1153.689087	1169.617676	121.212021
205.529449	1146.862427	1133.209351	1140.035889	50.000000
205.910904	1119.556274	1206.026001	1112.729614	-7.894855
206.292343	1115.005249	1092.250000	1071.770264	190.000061
206.673767	1140.035889	1158.240112	1121.831787	-99.999329
207.055115	1233.332275	1094.525513	1124.107300	78.688515
207.436462	1076.321289	1174.168701	1080.872437	4.651270
207.817780	1151.413574	1096.801025	1096.801025	100.000000
208.199051	1126.382813	1187.821899	1112.729614	-22.222332
208.580307	1044.463989	1108.178589	1074.045776	46.428585
208.961517	1092.250000	1126.382813	1135.484863	126.666573
209.342712	1069.494751	1121.831787	1133.209351	121.739029
209.723846	1092.250000	1149.138062	1130.933838	67.999924
210.104965	1187.821899	1140.035889	1149.138062	80.952225
210.486069	1128.658325	1190.097412	1076.321289	-85.185242
210.867111	1078.596802	1128.658325	1149.138062	140.909134
211.248123	1176.444214	1130.933838	1133.209351	95.000015
211.629120	1130.933838	1169.617676	1103.627563	-70.588326
212.010071	1089.974487	1142.311401	1119.556274	56.521839
212.390991	1126.382813	1128.658325	1176.444214	2200.005371
212.771881	1187.821899	1128.658325	1110.454102	130.769318
213.152756	1160.515625	1171.893188	1137.760376	-200.001068
213.533569	1115.005249	1146.862427	1112.729614	-7.143240
213.914368	1124.107300	1196.923950	1140.035889	21.874928
214.295135	1199.199463	1201.474976	1105.903076	-4100.016113
214.675858	1140.035889	1112.729614	1092.250000	174.999664
215.056549	1130.933838	1101.352051	1135.484863	-15.384552
215.437225	1153.689087	1130.933838	1153.689087	-0.000000
215.817841	1155.964600	1196.923950	1117.280762	-94.444458
216.198441	1115.005249	1176.444214	1144.586914	48.148052
216.579025	1140.035889	1160.515625	1124.107300	-77.777313
216.959549	1128.658325	1233.332275	1137.760376	8.695621
217.340057	1067.219238	1144.586914	1176.444214	141.176498
217.720535	1165.066650	1160.515625	1101.352051	1400.005371
218.100967	1153.689087	1160.515625	1153.689087	0.000000
218.481369	1151.413574	1128.658325	1196.923950	-199.999466
218.861740	1119.556274	1117.280762	1140.035889	-900.000000
219.242065	1119.556274	1146.862427	1162.791138	158.333786
219.622391	1153.689087	1115.005249	1155.964600	-5.882334
220.002670	1083.147949	1142.311401	1071.770264	-19.230936
220.382919	1146.862427	1130.933838	1171.893188	-157.143631
220.763123	1128.658325	1162.791138	1094.525513	-100.000000
221.143295	1128.658325	1190.097412	1080.872437	-77.777664
221.523453	1169.617676	1180.995239	1160.515625	-80.000000
221.903549	1121.831787	1194.648438	1146.862427	34.374886
222.283630	1142.311401	1212.852539	1160.515625	25.806536
222.663696	1160.515625	1126.382813	1019.433350	413.333282
223.043701	1115.005249	1196.923950	1158.240112	52.777771
223.423676	1058.117188	1142.311401	1101.352051	51.351349
223.803635	1140.035889	1149.138062	1199.199463	649.993958
224.183548	1080.872437	1192.372925	1158.240112	69.387749
224.563431	1033.086426	1192.372925	1099.076538	41.428566
224.943283	1115.005249	1174.168701	1192.372925	130.769379
225.323105	1110.454102	1144.586914	1183.270874	213.333649
225.702881	1133.209351	1199.199463	1153.689087	31.034554
226.082642	1085.423462	1149.138062	1194.648438	171.428482
226.462357	1146.862427	1244.709839	1190.097412	44.186131
226.842041	1087.698975	1165.066650	1176.444214	114.705833
227.221695	1124.107300	1178.719727	1137.760376	24.999945
227.601318	1137.760376	1171.893188	1124.107300	-39.999855
227.980911	1135.484863	1171.893188	1201.474976	181.250061
228.360474	1058.117188	1206.026001	1185.546387	86.153893
228.739990	1171.893188	1290.220337	1174.168701	1.923069
229.119476	1105.903076	1231.056763	1269.740601	130.909073
229.498932	1074.045776	1237.883301	1281.118164	126.388863
229.878372	1124.107300	1324.353149	1210.577026	43.181782
230.257736	1167.342163	1454.057739	1267.465088	34.920643
230.637115	1126.382813	1383.516602	1351.659302	87.610611
231.016449	1067.219238	1367.588013	1301.597900	78.030304
231.395737	1155.964600	1381.241089	1262.914063	47.474754
231.774994	1144.586914	1306.148926	1310.699951	102.816895
232.154221	1128.658325	1253.812012	1312.975464	147.272644
232.533417	1087.698975	1292.495850	1235.607788	72.222206
232.912582	1071.770264	1292.495850	1278.842651	93.814400
233.291702	1117.280762	1278.842651	1212.852539	59.154903
233.670792	1149.138062	1272.016113	1194.648438	37.037025
234.049866	1151.413574	1328.904175	1324.353149	97.435905
234.428894	1117.280762	1310.699951	1253.812012	70.588264
234.807892	1155.964600	1315.250977	1190.097412	21.428583
235.186874	1178.719727	1256.087524	1308.424438	167.646896
235.565781	1128.658325	1269.740601	1224.230225	67.741959
235.944687	1087.698975	1328.904175	1231.056763	59.433952
236.323547	1133.209351	1317.526489	1212.852539	43.209866
236.702377	1110.454102	1272.016113	1219.679199	67.605682
237.081177	1115.005249	1278.842651	1151.413574	22.222231
237.459946	1130.933838	1297.046875	1219.679199	53.424683
237.838669	1167.342163	1340.281738	1274.291626	61.842098
238.217361	1130.933838	1353.934937	1185.546387	24.489811
238.596039	1110.454102	1381.241089	1185.546387	27.731127
238.974670	1087.698975	1326.628662	1208.301514	50.476162
239.353271	1030.810913	1406.271851	1256.087524	60.000011
239.731842	1115.005249	1381.241089	1249.260864	50.427326
240.110367	1146.862427	1401.720825	1265.189575	46.428585
240.488876	1140.035889	1322.077637	1158.240112	10.000027
240.867340	1089.974487	1399.445313	1281.118164	61.764683
241.245789	1151.413574	1392.618774	1335.730713	76.415077
241.624176	1124.107300	1460.884399	1306.148926	54.054039
242.002548	1130.933838	1526.874512	1394.894287	66.666664
242.380890	1169.617676	1479.088501	1385.792114	69.852928
242.759186	1128.658325	1633.823975	1547.354126	82.882874
243.137451	1144.586914	1692.987427	1538.252075	71.784241
243.515686	1146.862427	1802.212524	1490.466064	52.430546
243.893890	1142.311401	1745.324463	1472.261963	54.716984
244.272049	1055.841675	1875.029175	1579.211426	63.888885
244.650192	1140.035889	1761.253052	1495.017212	57.142872
245.028290	1135.484863	1672.507813	1401.720825	49.576271
245.406357	1135.484863	1663.405762	1456.333252	60.775845
245.784393	1144.586914	1617.895264	1435.853638	61.538471
246.162384	1149.138062	1617.895264	1440.404663	62.135921
246.540359	1140.035889	1647.477051	1479.088501	66.816139
246.918289	1128.658325	1704.365112	1613.344238	84.189720
247.296204	1146.862427	1843.171875	1679.334351	76.470589
247.674057	1201.474976	2100.305664	1745.324463	60.506332
248.051895	1162.791138	2296.000488	1963.774414	70.682724
248.429703	1146.862427	2355.164063	1952.396851	66.666664
248.807465	1155.964600	2434.807373	1956.947876	62.633446
249.185196	1124.107300	2189.051025	1900.059814	72.863243
249.562897	1096.801025	2091.203613	1724.844727	63.157890
249.940567	1110.454102	1945.570313	1704.365112	71.117172
250.318192	1155.964600	1904.610962	1595.140137	58.662617
250.695801	1167.342163	1831.794189	1615.619751	67.465759
251.073349	1174.168701	1733.946899	1485.915039	55.691048
251.450882	1135.484863	1736.222412	1522.323364	64.393929
251.828400	1133.209351	1779.457275	1376.690063	37.676052
252.205872	1115.005249	1758.977539	1419.924927	47.349812
252.583313	1130.933838	1752.151001	1526.874512	63.736275
252.960693	1112.729614	1813.590088	1504.119263	55.844162
253.338074	1071.770264	1909.161987	1661.130127	70.380424
253.715408	1142.311401	1906.886475	1622.446289	62.797611
254.092682	1099.076538	1868.202637	1551.905151	58.875732
254.469955	1087.698975	1749.875488	1526.874512	66.323029
254.847198	1121.831787	1683.885376	1551.905151	76.518211
255.224365	1149.138062	1677.058838	1549.629639	75.862061
255.601563	1115.005249	1738.497925	1433.578125	51.094887
255.978683	1089.974487	1747.599976	1485.915039	60.207603
256.355743	1115.005249	1720.293701	1472.261963	59.022556
256.732819	1171.893188	1720.293701	1540.527588	67.219925
257.109894	1133.209351	1631.548462	1499.568237	73.515984
257.486877	1183.270874	1708.916138	1488.190552	58.008640
257.863831	1142.311401	1731.671387	1492.741699	59.459465
258.240753	1135.484863	1870.478149	1661.130127	71.517014
258.617645	1162.791138	1818.141113	1570.109375	62.152782
258.994507	1060.392700	1970.601074	1611.068726	60.499996
259.371307	1078.596802	2016.111450	1667.956787	62.864082
259.748108	1096.801025	2182.224365	1765.804199	61.635231
260.124878	1121.831787	2361.990479	1936.468262	65.688080
260.501617	1094.525513	2630.501953	2016.111450	60.000004
260.878296	1103.627563	2949.074951	2179.948975	58.323063
261.254944	1115.005249	3015.064941	2296.000488	62.155693
261.631561	1099.076538	3010.513916	2230.010498	59.166676
262.008179	1119.556274	2755.655762	2084.376953	58.970783
262.384735	1096.801025	2416.603027	1966.049927	65.862068
262.761261	1135.484863	2086.652588	1765.804199	66.267952
263.137695	1060.392700	2170.846924	1718.018188	59.221306
263.514191	1108.178589	2093.479248	1745.324463	64.665123
263.890594	1110.454102	2152.642578	1729.395752	59.388649
264.267029	1108.178589	2002.458252	1686.160889	64.631042
264.643341	1067.219238	2016.111450	1743.048950	71.223022
265.019653	1094.525513	2116.234375	1724.844727	61.692646
265.395935	1108.178589	2066.172852	1583.762451	49.643707
265.772217	1144.586914	1966.049927	1677.058838	64.819954
266.148407	1128.658325	1993.356201	1688.436401	64.736839
266.524597	1137.760376	2070.723877	1615.619751	51.219513
266.900726	1119.556274	2027.489014	1631.548462	56.390984
267.276855	1151.413574	2243.663574	1754.426514	55.208324
267.652924	1085.423462	2209.530762	1793.110352	62.955456
268.028992	1105.903076	2327.857666	1893.233276	64.432037
268.404999	1183.270874	2305.102539	1824.967651	57.200809
268.781006	1137.760376	2389.296875	1724.844727	46.909088
269.156921	1062.668213	2296.000488	1840.896362	63.099632
269.532837	1171.893188	2346.062012	1822.692139	55.426353
269.908661	1165.066650	2296.000488	1799.937012	56.136826
270.284546	1112.729614	2250.489990	1768.079712	57.600010
270.660339	1076.321289	2248.214600	1829.518677	64.271843
271.036133	1185.546387	2282.347412	1847.722900	60.373440
271.411835	1101.352051	2473.491211	1931.917114	60.530674
271.787537	1137.760376	2493.970703	1931.917114	58.557049
272.163239	1151.413574	2703.318604	1997.907227	54.545456
272.538849	1105.903076	2873.982666	2075.274902	54.826256
272.914459	1119.556274	2960.452637	2152.642578	56.118656
273.290070	1165.066650	2855.778564	2154.918213	58.546436
273.665588	1080.872437	2673.737061	2107.132324	64.428566
274.041046	1135.484863	2707.869873	2045.693237	57.887119
274.416565	1180.995239	2664.634766	2036.591064	57.668713
274.791962	1117.280762	2637.328613	1936.468262	53.892220
275.167389	1055.841675	2553.134277	1915.988525	57.446812
275.542755	1121.831787	2450.735840	1915.988525	59.760277
275.918060	1033.086426	2455.286865	1890.957764	60.320004
276.293365	1117.280762	2514.450439	1938.743774	58.794792
276.668640	1124.107300	2523.552490	1915.988525	56.585369
277.043854	1060.392700	2614.573486	1952.396851	57.393848
277.419037	1083.147949	2546.307861	2018.386963	63.919125
277.794189	1119.556274	2557.685303	2047.968750	64.556969
278.169312	1126.382813	2548.583252	2043.417725	64.480003
278.544373	1117.280762	2607.746826	1984.254150	58.167938
278.919464	1135.484863	2580.440674	1954.672363	56.692909
279.294464	1103.627563	2559.960938	1975.152100	59.843754
279.669464	1171.893188	2573.614014	1906.886475	52.435070
280.044403	1165.066650	2630.501953	1913.713013	51.086960
280.419312	1206.026001	2650.981689	1993.356201	54.488190
280.794189	1140.035889	2594.093750	2050.244141	62.597801
281.169037	1121.831787	2728.349365	2020.662476	55.949009
281.543854	1192.372925	2710.145264	1977.427612	51.724140
281.918671	1144.586914	2769.308838	2161.744873	62.605049
282.293365	1121.831787	2908.115479	2255.041016	63.439487
282.668091	1096.801025	3165.249512	2245.938965	55.555550
283.042786	1089.974487	3099.259277	2352.888428	62.853905
283.417419	1094.525513	3281.301025	2245.938965	52.653484
283.792053	1146.862427	3197.106689	2348.337402	58.601555
284.166595	1130.933838	2990.034424	2316.480225	63.769890
284.541138	1121.831787	3035.544678	2204.979736	56.599293
284.915619	1080.872437	2910.391113	2268.694336	64.925377
285.290100	1121.831787	3008.238525	2243.663574	59.469242
285.664520	1165.066650	3094.708252	2211.806152	54.245281
286.038940	1119.556274	3081.055176	2346.062012	62.529003
286.413300	1105.903076	3215.310791	2530.379150	67.529671
286.787628	1153.689087	3281.301025	2523.552490	64.385025
287.161896	1160.515625	3399.628174	2582.716064	63.516254
287.536194	1130.933838	3390.525879	2630.501953	66.364548
287.910400	1128.658325	3388.250488	2559.960938	63.343403
288.284607	1003.504700	3351.842041	2493.970703	63.468990
288.658752	1155.964600	3060.575439	2355.164063	62.962967
289.032867	1121.831787	3005.962891	2359.715088	65.700485
289.406921	1121.831787	3083.330566	2361.990479	63.225056
289.781006	1124.107300	3160.698486	2309.653564	58.212284
290.154999	1146.862427	3194.831299	2323.306641	57.444439
290.529022	1133.209351	3281.301025	2468.940186	62.182205
290.902954	1053.566162	3404.179199	2580.440674	64.956436
291.276825	1103.627563	3479.271240	2569.062988	61.685829
291.650757	1069.494751	3458.791504	2678.288086	67.333336
292.024597	1094.525513	3392.801514	2557.685303	63.663364
292.398407	1085.423462	3401.903564	2600.920166	65.422394
292.772156	1178.719727	3345.015625	2512.175049	61.554626
293.145905	1096.801025	3247.168213	2521.277100	66.243385
293.519592	1146.862427	3217.586426	2443.909424	62.637363
293.893280	1130.933838	3285.852051	2496.246338	63.357971
294.266907	1078.596802	3228.964111	2594.093750	70.476196
294.640533	1069.494751	3429.209961	2603.195801	64.995171
295.014069	1083.147949	3429.209961	2637.328613	66.246361
295.387604	1121.831787	3686.343750	2671.461426	60.425907
295.761078	1085.423462	3754.609375	2721.522949	61.295822
296.134552	1128.658325	3677.241699	2867.156250	68.214279
296.507996	1165.066650	3718.200928	2755.655762	62.299469
296.881378	1067.219238	3759.160400	2776.135498	63.482674
297.254730	1080.872437	3988.988037	2946.799316	64.162743
297.628021	1126.382813	4070.906738	3019.616211	64.296761
298.001282	1142.311401	4159.651855	3228.964111	69.155365
298.374573	1121.831787	4282.530273	3292.678711	68.682503
298.747803	1096.801025	4257.499512	3106.085938	63.570915
299.121002	1096.801025	3988.988037	3069.677490	68.213997
299.494141	1124.107300	3729.578613	3028.718262	73.100441
299.867188	1119.556274	3624.904541	2844.401123	68.846512
300.240265	1076.321289	3720.476563	2782.961914	64.543892
300.613312	1174.168701	3681.792725	2807.992676	65.154266
300.986328	1224.230225	3520.230713	2751.104736	66.501488
301.359314	1094.525513	3499.750977	2755.655762	69.063385
301.732239	1194.648438	3367.770752	2798.890625	73.821991
302.105103	1171.893188	3447.414063	2737.451416	68.799988
302.477997	1080.872437	3608.976074	2739.727051	65.616562
302.850830	1149.138062	3593.047363	2837.574463	69.087524
303.223602	1140.035889	3422.383301	2721.522949	69.292130
303.596375	1119.556274	3497.475586	2771.584229	69.473671
303.969116	1101.352051	3251.719238	2635.052979	71.322746
304.341766	1110.454102	3319.984863	2726.073975	73.120499
304.714478	1135.484863	3324.535889	2621.399902	67.879417
305.087067	1051.290649	3224.413086	2682.839111	75.078529
305.459656	1126.382813	3279.025391	2614.573486	69.133202
305.832214	1085.423462	3165.249512	2621.399902	73.851196
306.204681	1174.168701	3190.280273	2735.176025	77.426636
306.577148	1151.413574	3299.505127	2607.746826	67.796608
306.949646	1180.995239	3397.352539	2723.798340	69.609848
307.322021	1126.382813	3228.964111	2691.941162	74.458870
307.694397	1128.658325	3308.607178	2662.359375	70.354912
308.066742	1058.117188	3408.730225	2646.430664	67.570183
308.439026	1092.250000	3370.046387	2698.767578	70.529465
308.811279	1128.658325	3527.057129	2746.553711	67.457306
309.183502	1067.219238	3677.241699	2903.564453	70.357452
309.555695	1112.729614	3654.486328	2810.268311	66.786041
309.927887	1071.770264	3656.761963	2867.156250	69.454224
310.299988	1146.862427	3688.619141	2985.483398	72.336617
310.672058	1146.862427	3788.742188	2994.585449	69.939705
311.044128	1155.964600	3777.364502	2917.217773	67.187508
311.416168	1119.556274	3872.936523	2949.074951	66.446274
311.788147	1115.005249	3781.915527	3067.402100	73.208199
312.160065	1199.199463	3829.701416	2924.044189	65.570938
312.531982	1089.974487	3822.875000	2942.248291	67.776848
312.903870	1130.933838	3659.037354	2885.360352	69.396942
313.275696	1117.280762	3579.394287	2789.788574	67.929764
313.647491	1149.138062	3627.180176	2828.472412	67.768600
314.019318	1119.556274	3554.363525	2716.971924	65.607483
314.391022	1124.107300	3488.373291	2739.727051	68.334938
314.762726	1124.107300	3556.638916	2812.543701	69.410660
315.134369	1126.382813	3684.068115	2835.298828	66.814941
315.505981	1194.648438	3668.139648	3015.064941	73.597046
315.877594	1092.250000	3866.109863	2951.350586	67.022156
316.249146	1096.801025	3740.956299	2899.013428	68.158340
316.620636	1169.617676	3606.700439	2732.900391	64.145653
316.992157	1194.648438	3513.404053	2716.971924	65.652603
317.363586	1121.831787	3411.005615	2776.135498	72.266411
317.735016	1094.525513	3442.863037	2580.440674	63.275200
