Jaz Data File
++++++++++++++++++++++++++++++++++++
Date: Sun Sep 29 07:28:57 2024
User: jaz
Dark Spectrum Present: Yes
Reference Spectrum Present: Yes
Processed Spectrum Present: Yes
Spectrometers: JAZA3692
Integration Time (usec): 40000 (JAZA3692)
Spectra Averaged: 1 (JAZA3692)
Boxcar Smoothing: 0 (JAZA3692)
Correct for Electrical Dark: No (JAZA3692)
Strobe/Lamp Enabled: Yes (JAZA3692)
Correct for Detector Non-linearity: No (JAZA3692)
Correct for Stray Light: No (JAZA3692)
Number of Pixels in Processed Spectrum: 2048
>>>>>Begin Processed Spectral Data<<<<<
W	D	R	S	P
190.244385	0.000000	0.000000	0.000000	0.000000
190.627136	0.000000	0.000000	0.000000	0.000000
191.009842	1105.903076	1067.219238	1062.668213	111.764671
191.392532	1112.729614	1064.943726	1110.454102	4.761893
191.775177	1137.760376	1119.556274	1174.168701	-200.000671
192.157791	1144.586914	1085.423462	1146.862427	-3.846146
192.540390	1196.923950	1151.413574	1176.444214	45.000149
192.922943	1178.719727	1074.045776	1026.259888	145.652130
193.305481	1183.270874	1162.791138	1092.250000	444.443573
193.687958	1105.903076	1190.097412	1105.903076	0.000000
194.070419	1112.729614	1087.698975	1103.627563	36.363636
194.452866	1221.954712	1178.719727	1083.147949	321.051941
194.835251	1187.821899	1249.260864	1089.974487	-159.259537
195.217621	1199.199463	1210.577026	1112.729614	-760.003235
195.599960	1142.311401	1135.484863	1165.066650	-333.335114
195.982254	1078.596802	1137.760376	1153.689087	126.923172
196.364517	1124.107300	1146.862427	1089.974487	-150.000534
196.746750	1167.342163	1128.658325	1130.933838	94.117668
197.128952	1178.719727	1169.617676	1194.648438	-175.001343
197.511139	1167.342163	1233.332275	1137.760376	-44.827606
197.893280	1165.066650	1092.250000	1133.209351	43.750019
198.275391	1087.698975	1187.821899	1140.035889	52.272659
198.657471	1119.556274	1206.026001	1171.893188	60.526287
199.039520	1130.933838	1256.087524	1128.658325	-1.818175
199.421539	1171.893188	1215.128052	1151.413574	-47.368286
199.803513	1185.546387	1110.454102	1137.760376	63.636379
200.185471	1099.076538	1144.586914	1094.525513	-9.999973
200.567383	1208.301514	1162.791138	1155.964600	114.999962
200.949265	1167.342163	1221.954712	1167.342163	0.000000
201.331131	1124.107300	1137.760376	1094.525513	-216.667557
201.712967	1140.035889	1101.352051	1130.933838	23.529337
202.094742	1133.209351	1180.995239	1080.872437	-109.523788
202.476517	1083.147949	1199.199463	1194.648438	96.078445
202.858231	1128.658325	1153.689087	1151.413574	90.909134
203.239944	1103.627563	1155.964600	1067.219238	-69.565125
203.621582	1121.831787	1130.933838	1069.494751	-575.002686
204.003235	1137.760376	1112.729614	1151.413574	-54.545677
204.384827	1144.586914	1185.546387	1126.382813	-44.444180
204.766388	1108.178589	1215.128052	1128.658325	19.148985
205.147934	1078.596802	1153.689087	1092.250000	18.181892
205.529449	1146.862427	1133.209351	1158.240112	-83.334229
205.910904	1119.556274	1206.026001	1128.658325	10.526286
206.292343	1115.005249	1092.250000	1174.168701	-259.999146
206.673767	1140.035889	1158.240112	1185.546387	249.999664
207.055115	1233.332275	1094.525513	1146.862427	62.295128
207.436462	1076.321289	1174.168701	1115.005249	39.534985
207.817780	1151.413574	1096.801025	1135.484863	29.166759
208.199051	1126.382813	1187.821899	1165.066650	62.962910
208.580307	1044.463989	1108.178589	1112.729614	107.142830
208.961517	1092.250000	1126.382813	1092.250000	0.000000
209.342712	1069.494751	1121.831787	1046.739624	-43.478058
209.723846	1092.250000	1149.138062	1058.117188	-59.999958
210.104965	1187.821899	1140.035889	1069.494751	247.618805
210.486069	1128.658325	1190.097412	1092.250000	-59.259224
210.867111	1078.596802	1128.658325	1165.066650	172.727158
211.248123	1176.444214	1130.933838	1167.342163	19.999947
211.629120	1130.933838	1169.617676	1103.627563	-70.588326
212.010071	1089.974487	1142.311401	1199.199463	208.695862
212.390991	1126.382813	1128.658325	1101.352051	-1100.005371
212.771881	1187.821899	1128.658325	1137.760376	84.615448
213.152756	1160.515625	1171.893188	1101.352051	-520.002136
213.533569	1115.005249	1146.862427	1071.770264	-135.715057
213.914368	1124.107300	1196.923950	1135.484863	15.624948
214.295135	1199.199463	1201.474976	1046.739624	-6700.021484
214.675858	1140.035889	1112.729614	1053.566162	316.666138
215.056549	1130.933838	1101.352051	1121.831787	30.769104
215.437225	1153.689087	1130.933838	1094.525513	259.999664
215.817841	1155.964600	1196.923950	1112.729614	-105.555840
216.198441	1115.005249	1176.444214	1087.698975	-44.444553
216.579025	1140.035889	1160.515625	1103.627563	-177.777313
216.959549	1128.658325	1233.332275	1062.668213	-63.043491
217.340057	1067.219238	1144.586914	1064.943726	-2.941167
217.720535	1165.066650	1160.515625	1089.974487	1650.005371
218.100967	1153.689087	1160.515625	1128.658325	-366.668457
218.481369	1151.413574	1128.658325	1096.801025	239.999786
218.861740	1119.556274	1117.280762	1153.689087	-1500.005371
219.242065	1119.556274	1146.862427	1108.178589	-41.667114
219.622391	1153.689087	1115.005249	1135.484863	47.058990
220.002670	1083.147949	1142.311401	1187.821899	176.923325
220.382919	1146.862427	1130.933838	1067.219238	500.001526
220.763123	1128.658325	1162.791138	1076.321289	-153.333496
221.143295	1128.658325	1190.097412	1142.311401	22.222134
221.523453	1169.617676	1180.995239	1187.821899	160.001068
221.903549	1121.831787	1194.648438	1039.912964	-112.500122
222.283630	1142.311401	1212.852539	1092.250000	-70.967667
222.663696	1160.515625	1126.382813	1096.801025	186.666718
223.043701	1115.005249	1196.923950	1110.454102	-5.555688
223.423676	1058.117188	1142.311401	1101.352051	51.351349
223.803635	1140.035889	1149.138062	1119.556274	-224.996979
224.183548	1080.872437	1192.372925	1115.005249	30.612253
224.563431	1033.086426	1192.372925	1096.801025	40.000000
224.943283	1115.005249	1174.168701	1149.138062	57.692394
225.323105	1110.454102	1144.586914	1105.903076	-13.333285
225.702881	1133.209351	1199.199463	1110.454102	-34.482815
226.082642	1085.423462	1149.138062	1183.270874	153.571411
226.462357	1146.862427	1244.709839	1019.433350	-130.232452
226.842041	1087.698975	1165.066650	1087.698975	0.000000
227.221695	1124.107300	1178.719727	1089.974487	-62.500084
227.601318	1137.760376	1171.893188	1076.321289	-180.000076
227.980911	1135.484863	1171.893188	1142.311401	18.749937
228.360474	1058.117188	1206.026001	1144.586914	58.461510
228.739990	1171.893188	1290.220337	1119.556274	-44.230690
229.119476	1105.903076	1231.056763	1119.556274	10.909146
229.498932	1074.045776	1237.883301	1187.821899	69.444481
229.878372	1124.107300	1324.353149	1215.128052	45.454502
230.257736	1167.342163	1454.057739	1178.719727	3.968240
230.637115	1126.382813	1383.516602	1133.209351	2.654858
231.016449	1067.219238	1367.588013	1176.444214	36.363625
231.395737	1155.964600	1381.241089	1185.546387	13.131325
231.774994	1144.586914	1306.148926	1146.862427	1.408445
232.154221	1128.658325	1253.812012	1135.484863	5.454524
232.533417	1087.698975	1292.495850	1146.862427	28.888845
232.912582	1071.770264	1292.495850	1126.382813	24.742283
233.291702	1117.280762	1278.842651	1133.209351	9.859125
233.670792	1149.138062	1272.016113	1194.648438	37.037025
234.049866	1151.413574	1328.904175	1121.831787	-16.666677
234.428894	1117.280762	1310.699951	1178.719727	31.764669
234.807892	1155.964600	1315.250977	1185.546387	18.571447
235.186874	1178.719727	1256.087524	1221.954712	55.882404
235.565781	1128.658325	1269.740601	1153.689087	17.741961
235.944687	1087.698975	1328.904175	1210.577026	50.943367
236.323547	1133.209351	1317.526489	1119.556274	-7.407383
236.702377	1110.454102	1272.016113	1219.679199	67.605682
237.081177	1115.005249	1278.842651	1153.689087	23.611115
237.459946	1130.933838	1297.046875	1115.005249	-9.589005
237.838669	1167.342163	1340.281738	1103.627563	-36.842117
238.217361	1130.933838	1353.934937	1140.035889	4.081617
238.596039	1110.454102	1381.241089	1155.964600	16.806753
238.974670	1087.698975	1326.628662	1119.556274	13.333337
239.353271	1030.810913	1406.271851	1137.760376	28.484844
239.731842	1115.005249	1381.241089	1153.689087	14.529914
240.110367	1146.862427	1401.720825	1144.586914	-0.892854
240.488876	1140.035889	1322.077637	1174.168701	18.749992
240.867340	1089.974487	1399.445313	1169.617676	25.735281
241.245789	1151.413574	1392.618774	1133.209351	-7.547194
241.624176	1124.107300	1460.884399	1208.301514	24.999981
242.002548	1130.933838	1526.874512	1162.791138	8.045979
242.380890	1169.617676	1479.088501	1233.332275	20.588242
242.759186	1128.658325	1633.823975	1174.168701	9.009001
243.137451	1144.586914	1692.987427	1242.434326	17.842327
243.515686	1146.862427	1802.212524	1226.505737	12.152788
243.893890	1142.311401	1745.324463	1249.260864	17.735846
244.272049	1055.841675	1875.029175	1262.914063	25.277777
244.650192	1140.035889	1761.253052	1301.597900	26.007332
245.028290	1135.484863	1672.507813	1224.230225	16.525433
245.406357	1135.484863	1663.405762	1260.638550	23.706902
245.784393	1144.586914	1617.895264	1171.893188	5.769236
246.162384	1149.138062	1617.895264	1256.087524	22.815535
246.540359	1140.035889	1647.477051	1119.556274	-4.035860
246.918289	1128.658325	1704.365112	1249.260864	20.948605
247.296204	1146.862427	1843.171875	1258.363037	16.013083
247.674057	1201.474976	2100.305664	1310.699951	12.151896
248.051895	1162.791138	2296.000488	1413.098389	22.088350
248.429703	1146.862427	2355.164063	1413.098389	22.033899
248.807465	1155.964600	2434.807373	1376.690063	17.259781
249.185196	1124.107300	2189.051025	1374.414551	23.504271
249.562897	1096.801025	2091.203613	1369.863525	27.459955
249.940567	1110.454102	1945.570313	1322.077637	25.340609
250.318192	1155.964600	1904.610962	1310.699951	20.668684
250.695801	1167.342163	1831.794189	1326.628662	23.972610
251.073349	1174.168701	1733.946899	1278.842651	18.699183
251.450882	1135.484863	1736.222412	1231.056763	15.909094
251.828400	1133.209351	1779.457275	1231.056763	15.140847
252.205872	1115.005249	1758.977539	1244.709839	20.141331
252.583313	1130.933838	1752.151001	1244.709839	18.315012
252.960693	1112.729614	1813.590088	1262.914063	21.428579
253.338074	1071.770264	1909.161987	1226.505737	18.478266
253.715408	1142.311401	1906.886475	1206.026001	8.333335
254.092682	1099.076538	1868.202637	1219.679199	15.680480
254.469955	1087.698975	1749.875488	1212.852539	18.900333
254.847198	1121.831787	1683.885376	1235.607788	20.242910
255.224365	1149.138062	1677.058838	1190.097412	7.758617
255.601563	1115.005249	1738.497925	1285.669312	27.372265
255.978683	1089.974487	1747.599976	1231.056763	21.453285
256.355743	1115.005249	1720.293701	1246.985352	21.804497
256.732819	1171.893188	1720.293701	1199.199463	4.979258
257.109894	1133.209351	1631.548462	1276.567139	28.767115
257.486877	1183.270874	1708.916138	1292.495850	20.779219
257.863831	1142.311401	1731.671387	1233.332275	15.444020
258.240753	1135.484863	1870.478149	1224.230225	12.074309
258.617645	1162.791138	1818.141113	1312.975464	22.916660
258.994507	1060.392700	1970.601074	1272.016113	23.249996
259.371307	1078.596802	2016.111450	1242.434326	17.475729
259.748108	1096.801025	2182.224365	1358.485962	24.109020
260.124878	1121.831787	2361.990479	1363.036987	19.449543
260.501617	1094.525513	2630.501953	1383.516602	18.814812
260.878296	1103.627563	2949.074951	1510.945801	22.071518
261.254944	1115.005249	3015.064941	1483.639526	19.401194
261.631561	1099.076538	3010.513916	1515.496826	21.785715
262.008179	1119.556274	2755.655762	1433.578125	19.193323
262.384735	1096.801025	2416.603027	1374.414551	21.034483
262.761261	1135.484863	2086.652588	1342.557251	21.770334
263.137695	1060.392700	2170.846924	1378.965576	28.688519
263.514191	1108.178589	2093.479248	1246.985352	14.087757
263.890594	1110.454102	2152.642578	1274.291626	15.720528
264.267029	1108.178589	2002.458252	1283.393677	19.592875
264.643341	1067.219238	2016.111450	1365.312500	31.414871
265.019653	1094.525513	2116.234375	1349.383789	24.944315
265.395935	1108.178589	2066.172852	1303.873413	20.427557
265.772217	1144.586914	1966.049927	1283.393677	16.897507
266.148407	1128.658325	1993.356201	1347.108276	25.263153
266.524597	1137.760376	2070.723877	1306.148926	18.048782
266.900726	1119.556274	2027.489014	1219.679199	11.027571
267.276855	1151.413574	2243.663574	1351.659302	18.333324
267.652924	1085.423462	2209.530762	1388.067749	26.923079
268.028992	1105.903076	2327.857666	1385.792114	22.905027
268.404999	1183.270874	2305.102539	1306.148926	10.953341
268.781006	1137.760376	2389.296875	1342.557251	16.363636
269.156921	1062.668213	2296.000488	1303.873413	19.557196
269.532837	1171.893188	2346.062012	1310.699951	11.821704
269.908661	1165.066650	2296.000488	1358.485962	17.102619
270.284546	1112.729614	2250.489990	1365.312500	22.200006
270.660339	1076.321289	2248.214600	1338.006226	22.330099
271.036133	1185.546387	2282.347412	1388.067749	18.464731
271.411835	1101.352051	2473.491211	1410.822876	22.553894
271.787537	1137.760376	2493.970703	1388.067749	18.456383
272.163239	1151.413574	2703.318604	1363.036987	13.636364
272.538849	1105.903076	2873.982666	1406.271851	16.988419
272.914459	1119.556274	2960.452637	1504.119263	20.889986
273.290070	1165.066650	2855.778564	1567.833862	23.822344
273.665588	1080.872437	2673.737061	1449.506714	23.142851
274.041046	1135.484863	2707.869873	1490.466064	22.575972
274.416565	1180.995239	2664.634766	1426.751587	16.564425
274.791962	1117.280762	2637.328613	1413.098389	19.461073
275.167389	1055.841675	2553.134277	1281.118164	15.045588
275.542755	1121.831787	2450.735840	1419.924927	22.431501
275.918060	1033.086426	2455.286865	1429.027100	27.840006
276.293365	1117.280762	2514.450439	1340.281738	15.960909
276.668640	1124.107300	2523.552490	1406.271851	20.162601
277.043854	1060.392700	2614.573486	1458.608887	25.622257
277.419037	1083.147949	2546.307861	1499.568237	28.460340
277.794189	1119.556274	2557.685303	1454.057739	23.259489
278.169312	1126.382813	2548.583252	1515.496826	27.359999
278.544373	1117.280762	2607.746826	1426.751587	20.763359
278.919464	1135.484863	2580.440674	1538.252075	27.874016
279.294464	1103.627563	2559.960938	1383.516602	19.218748
279.669464	1171.893188	2573.614014	1424.476074	18.019485
280.044403	1165.066650	2630.501953	1483.639526	21.739130
280.419312	1206.026001	2650.981689	1469.986450	18.267719
280.794189	1140.035889	2594.093750	1467.710938	22.535213
281.169037	1121.831787	2728.349365	1506.394775	23.937677
281.543854	1192.372925	2710.145264	1467.710938	18.140930
281.918671	1144.586914	2769.308838	1479.088501	20.588236
282.293365	1121.831787	2908.115479	1556.456177	24.331207
282.668091	1096.801025	3165.249512	1567.833862	22.772278
283.042786	1089.974487	3099.259277	1563.282837	23.556061
283.417419	1094.525513	3281.301025	1570.109375	21.748180
283.792053	1146.862427	3197.106689	1588.313477	21.531633
284.166595	1130.933838	2990.034424	1597.415649	25.091801
284.541138	1121.831787	3035.544678	1574.660400	23.662306
284.915619	1080.872437	2910.391113	1608.793213	28.855719
285.290100	1121.831787	3008.238525	1595.140137	25.090471
285.664520	1165.066650	3094.708252	1658.854614	25.589621
286.038940	1119.556274	3081.055176	1670.232300	28.074245
286.413300	1105.903076	3215.310791	1663.405762	26.429348
286.787628	1153.689087	3281.301025	1727.120239	26.951870
287.161896	1160.515625	3399.628174	1743.048950	26.016260
287.536194	1130.933838	3390.525879	1781.732788	28.801613
287.910400	1128.658325	3388.250488	1708.916138	25.679758
288.284607	1003.504700	3351.842041	1672.507813	28.488373
288.658752	1155.964600	3060.575439	1656.579102	26.284346
289.032867	1121.831787	3005.962891	1606.517700	25.724638
289.406921	1121.831787	3083.330566	1645.201538	26.682135
289.781006	1124.107300	3160.698486	1561.007324	21.452515
290.154999	1146.862427	3194.831299	1636.099487	23.888891
290.529022	1133.209351	3281.301025	1551.905151	19.491522
290.902954	1053.566162	3404.179199	1729.395752	28.751205
291.276825	1103.627563	3479.271240	1715.742676	25.766287
291.650757	1069.494751	3458.791504	1736.222412	27.904764
292.024597	1094.525513	3392.801514	1652.028076	24.257425
292.398407	1085.423462	3401.903564	1686.160889	25.933201
292.772156	1178.719727	3345.015625	1690.711914	23.634453
293.145905	1096.801025	3247.168213	1724.844727	29.206347
293.519592	1146.862427	3217.586426	1674.783325	25.494507
293.893280	1130.933838	3285.852051	1626.997314	23.020060
294.266907	1078.596802	3228.964111	1688.436401	28.359789
294.640533	1069.494751	3429.209961	1690.711914	26.325937
295.014069	1083.147949	3429.209961	1797.661377	30.455862
295.387604	1121.831787	3686.343750	1770.355225	25.288376
295.761078	1085.423462	3754.609375	1740.773438	24.552427
296.134552	1128.658325	3677.241699	1738.497925	23.928570
296.507996	1165.066650	3718.200928	1711.191650	21.390375
296.881378	1067.219238	3759.160400	1793.110352	26.965342
297.254730	1080.872437	3988.988037	1804.488037	24.882627
297.628021	1126.382813	4070.906738	1879.580200	25.579597
298.001282	1142.311401	4159.651855	1890.957764	24.811466
298.374573	1121.831787	4282.530273	1834.069824	22.534197
298.747803	1096.801025	4257.499512	1915.988525	25.917927
299.121002	1096.801025	3988.988037	1811.314575	24.704956
299.494141	1124.107300	3729.578613	1790.834839	25.589520
299.867188	1119.556274	3624.904541	1777.181763	26.248867
300.240265	1076.321289	3720.476563	1708.916138	23.924271
300.613312	1174.168701	3681.792725	1699.814087	20.961889
300.986328	1224.230225	3520.230713	1745.324463	22.695738
301.359314	1094.525513	3499.750977	1743.048950	26.963102
301.732239	1194.648438	3367.770752	1688.436401	22.722511
302.105103	1171.893188	3447.414063	1690.711914	22.799997
302.477997	1080.872437	3608.976074	1645.201538	22.322231
302.850830	1149.138062	3593.047363	1681.609863	21.787708
303.223602	1140.035889	3422.383301	1670.232300	23.230312
303.596375	1119.556274	3497.475586	1692.987427	24.114826
303.969116	1101.352051	3251.719238	1608.793213	23.597885
304.341766	1110.454102	3319.984863	1549.629639	19.876417
304.714478	1135.484863	3324.535889	1645.201538	23.284824
305.087067	1051.290649	3224.413086	1658.854614	27.958109
305.459656	1126.382813	3279.025391	1642.926025	23.995773
305.832214	1085.423462	3165.249512	1640.650513	26.695839
306.204681	1174.168701	3190.280273	1620.170776	22.121895
306.577148	1151.413574	3299.505127	1579.211426	19.915253
306.949646	1180.995239	3397.352539	1617.895264	19.712526
307.322021	1126.382813	3228.964111	1590.588989	22.077919
307.694397	1128.658325	3308.607178	1572.384888	20.354908
308.066742	1058.117188	3408.730225	1636.099487	24.588577
308.439026	1092.250000	3370.046387	1590.588989	21.878119
308.811279	1128.658325	3527.057129	1608.793213	20.018976
309.183502	1067.219238	3677.241699	1672.507813	23.190933
309.555695	1112.729614	3654.486328	1670.232300	21.933754
309.927887	1071.770264	3656.761963	1642.926025	22.095072
310.299988	1146.862427	3688.619141	1647.477051	19.695614
310.672058	1146.862427	3788.742188	1652.028076	19.121447
311.044128	1155.964600	3777.364502	1754.426514	22.829859
311.416168	1119.556274	3872.936523	1718.018188	21.735533
311.788147	1115.005249	3781.915527	1672.507813	20.904438
312.160065	1199.199463	3829.701416	1604.242188	15.397925
312.531982	1089.974487	3822.875000	1656.579102	20.732721
312.903870	1130.933838	3659.037354	1638.375000	20.072008
313.275696	1117.280762	3579.394287	1583.762451	18.946392
313.647491	1149.138062	3627.180176	1722.569214	23.140493
314.019318	1119.556274	3554.363525	1642.926025	21.495327
314.391022	1124.107300	3488.373291	1686.160889	23.772856
314.762726	1124.107300	3556.638916	1736.222412	25.163706
315.134369	1126.382813	3684.068115	1652.028076	20.551600
315.505981	1194.648438	3668.139648	1756.702026	22.723087
315.877594	1092.250000	3866.109863	1740.773438	23.379820
316.249146	1096.801025	3740.956299	1720.293701	23.580032
316.620636	1169.617676	3606.700439	1624.721802	18.674135
316.992157	1194.648438	3513.404053	1531.425537	14.524045
317.363586	1121.831787	3411.005615	1624.721802	21.968187
317.735016	1094.525513	3442.863037	1549.629639	19.379845
